SpectraSuite Data File
++++++++++++++++++++++++++++++++++++
Date: Tue Jun 09 13:50:29 CEST 2015
User: jiasu
Dark Spectrum Present: No
Reference Spectrum Present: No
Number of Sampled Component Spectra: 1
Spectrometers: USB2+F02403
Integration Time (usec): 30000000 (USB2+F02403)
Spectra Averaged: 1 (USB2+F02403)
Boxcar Smoothing: 0 (USB2+F02403)
Correct for Electrical Dark: No (USB2+F02403)
Strobe/Lamp Enabled: No (USB2+F02403)
Correct for Detector Non-linearity: No (USB2+F02403)
Correct for Stray Light: No (USB2+F02403)
Number of Pixels in Processed Spectrum: 2048
>>>>>Begin Processed Spectral Data<<<<<
177.51	990.05
177.90	990.05
178.28	990.05
178.67	870.68
179.05	875.36
179.44	6967.77
179.82	3119.93
180.20	11662.89
180.59	4056.15
180.97	3988.27
181.36	5404.30
181.74	5425.36
182.12	3740.18
182.51	5493.24
182.89	4505.53
183.28	5142.16
183.66	4227.01
184.04	5523.66
184.43	4245.73
184.81	3569.32
185.19	3693.37
185.58	6464.56
185.96	6312.42
186.35	2998.23
186.73	5565.79
187.11	7524.82
187.50	6768.83
187.88	5160.88
188.26	5104.71
188.65	4374.46
189.03	3141.00
189.41	3988.27
189.80	9710.88
190.18	4489.15
190.56	4807.46
190.95	4992.36
191.33	4957.25
191.71	5961.34
192.10	5305.99
192.48	5568.13
192.86	3396.12
193.25	8156.77
193.63	2925.67
194.01	5863.04
194.40	3590.38
194.78	6340.51
195.16	3023.97
195.54	5797.51
195.93	3021.63
196.31	4355.74
196.69	3466.33
197.08	4936.19
197.46	4737.24
197.84	3889.97
198.22	8514.87
198.61	3438.25
198.99	5968.37
199.37	3009.93
199.75	3695.71
200.14	4402.55
200.52	5167.90
200.90	3920.40
201.28	3758.90
201.67	6684.57
202.05	4224.67
202.43	5694.52
202.81	4285.52
203.20	2441.18
203.58	5603.24
203.96	4468.08
204.34	6399.02
204.72	4610.86
205.11	4042.11
205.49	4865.97
205.87	5481.53
206.25	5322.38
206.63	3777.62
207.02	3763.58
207.40	4503.19
207.78	4205.94
208.16	5144.50
208.54	4004.66
208.93	3007.59
209.31	7866.54
209.69	4601.49
210.07	2881.20
210.45	4039.76
210.83	5320.04
211.22	4325.31
211.60	4697.46
211.98	2754.81
212.36	2724.38
212.74	3342.28
213.12	3293.13
213.50	3056.74
213.89	3911.04
214.27	5837.30
214.65	4994.70
215.03	5661.76
215.41	4826.18
215.79	3279.09
216.17	2445.86
216.55	5327.06
216.94	5645.37
217.32	3651.24
217.70	4533.62
218.08	3574.00
218.46	3103.55
218.84	2806.30
219.22	5565.79
219.60	3143.34
219.98	7735.47
220.36	4926.83
220.74	4744.27
221.12	5825.59
221.51	3204.19
221.89	3449.95
222.27	6857.77
222.65	3875.93
223.03	3517.83
223.41	2389.69
223.79	5107.05
224.17	4383.82
224.55	3779.97
224.93	3688.68
225.31	5008.75
225.69	3964.87
226.07	3957.85
226.45	2726.72
226.83	5029.81
227.21	2382.67
227.59	4215.30
227.97	4807.46
228.35	4725.54
228.73	6420.09
229.11	3826.78
229.49	6743.08
229.87	2656.51
230.25	4131.05
230.63	3644.21
231.01	2928.01
231.39	6087.73
231.77	3941.46
232.15	3007.59
232.53	5074.28
232.91	7110.55
233.29	5114.07
233.67	4032.74
234.05	3389.10
234.43	6403.71
234.81	6520.73
235.19	2623.74
235.57	3990.61
235.95	7138.63
236.33	4032.74
236.71	3782.31
237.09	3840.82
237.47	3052.06
237.84	4980.66
238.22	7548.23
238.60	3889.97
238.98	4882.36
239.36	3641.87
239.74	5121.09
240.12	4067.85
240.50	3723.79
240.88	7391.41
241.26	4966.62
241.64	4280.84
242.01	5203.01
242.39	5228.76
242.77	2820.35
243.15	2874.18
243.53	2944.39
243.91	2530.12
244.29	3669.96
244.67	2949.08
245.04	4046.79
245.42	3768.26
245.80	3892.31
246.18	3901.67
246.56	2848.43
246.94	3768.26
247.32	4844.91
247.69	4007.00
248.07	5570.48
248.45	4779.37
248.83	2857.79
249.21	2911.63
249.59	4697.46
249.96	7061.40
250.34	3609.11
250.72	7517.80
251.10	5703.89
251.48	3211.22
251.86	4671.71
252.23	3391.44
252.61	4028.06
252.99	5104.71
253.37	2920.99
253.74	3157.38
254.12	3576.34
254.50	4627.24
254.88	3824.44
255.26	4959.60
255.63	3405.48
256.01	8184.85
256.39	3384.41
256.77	3384.41
257.14	4564.04
257.52	5383.23
257.90	2656.51
258.28	3534.21
258.65	2719.70
259.03	2916.31
259.41	2560.55
259.79	3089.51
260.16	3655.92
260.54	4620.22
260.92	3733.15
261.30	5944.96
261.67	2986.52
262.05	7470.99
262.43	3508.46
262.80	4152.11
263.18	4201.26
263.56	4571.07
263.94	3290.79
264.31	4386.16
264.69	4627.24
265.07	4376.80
265.44	2846.09
265.82	4936.19
266.20	2909.29
266.57	5083.64
266.95	4709.16
267.33	4681.07
267.70	8704.45
268.08	5998.79
268.46	4933.85
268.83	4095.94
269.21	4084.23
269.59	3559.95
269.96	5327.06
270.34	5516.64
270.71	7950.80
271.09	3506.12
271.47	3723.79
271.84	3726.13
272.22	5933.26
272.60	4954.91
272.97	2621.40
273.35	2590.97
273.72	7431.20
274.10	3213.56
274.48	4992.36
274.85	3772.94
275.23	4894.06
275.60	3997.64
275.98	3302.50
276.36	4266.80
276.73	4044.45
277.11	5240.46
277.48	4245.73
277.86	3059.08
278.24	2972.48
278.61	2780.56
278.99	2780.56
279.36	5488.56
279.74	5841.98
280.11	3138.66
280.49	5343.44
280.86	5170.24
281.24	3040.36
281.61	4095.94
281.99	7765.90
282.37	6064.33
282.74	4606.17
283.12	3744.86
283.49	3286.11
283.87	8046.76
284.24	4067.85
284.62	4344.03
284.99	3873.59
285.37	4077.21
285.74	4388.50
286.12	3330.58
286.49	2539.48
286.87	2305.43
287.24	4182.54
287.62	3283.77
287.99	5930.92
288.37	5961.34
288.74	4601.49
289.12	5324.72
289.49	3784.65
289.86	4465.74
290.24	3698.05
290.61	4039.76
290.99	3660.60
291.36	2619.06
291.74	6256.25
292.11	2888.22
292.49	2698.64
292.86	4819.16
293.23	3419.52
293.61	3791.67
293.98	4896.40
294.36	4227.01
294.73	3286.11
295.11	2616.72
295.48	3405.48
295.85	5432.38
296.23	4294.88
296.60	3424.20
296.98	2883.54
297.35	3637.19
297.72	2778.22
298.10	2757.15
298.47	2810.98
298.85	3304.84
299.22	9418.32
299.59	2396.71
299.97	3969.55
300.34	3370.37
300.71	7466.31
301.09	3868.91
301.46	4608.51
301.83	4149.77
302.21	3358.67
302.58	4734.90
302.95	6630.74
303.33	4933.85
303.70	3679.32
304.07	4503.19
304.45	5989.43
304.82	5628.99
305.19	3934.44
305.57	2485.65
305.94	7442.90
306.31	5425.36
306.69	3651.24
307.06	4109.98
307.43	2490.33
307.81	4332.33
308.18	5001.72
308.55	7330.56
308.92	3513.14
309.30	5057.90
309.67	4828.53
310.04	4194.24
310.42	4063.17
310.79	4842.57
311.16	3475.70
311.53	3691.02
311.91	4189.56
312.28	4229.35
312.65	2895.24
313.02	5032.15
313.40	5231.10
313.77	2530.12
314.14	6228.17
314.51	4238.71
314.89	7248.64
315.26	4112.32
315.63	3204.19
316.00	4440.00
316.37	3508.46
316.75	3662.94
317.12	3115.25
317.49	3295.47
317.86	7723.77
318.23	5334.08
318.61	4596.81
318.98	2963.12
319.35	4182.54
319.72	6045.60
320.09	5549.41
320.47	4311.27
320.84	3925.08
321.21	4915.12
321.58	3969.55
321.95	4975.98
322.32	3047.38
322.70	3794.01
323.07	4346.37
323.44	4929.17
323.81	4035.08
324.18	4746.61
324.55	7234.60
324.92	4688.09
325.30	2333.51
325.67	5453.45
326.04	4465.74
326.41	3506.12
326.78	3054.40
327.15	4770.01
327.52	8107.62
327.89	3508.46
328.27	4269.14
328.64	6111.14
329.01	4056.15
329.38	5792.83
329.75	6289.02
330.12	2806.30
330.49	3915.72
330.86	3875.93
331.23	6384.98
331.60	4662.35
331.97	5287.27
332.34	3290.79
332.71	4100.62
333.09	3433.57
333.46	3529.53
333.83	4589.79
334.20	3906.35
334.57	4507.87
334.94	4126.36
335.31	2841.41
335.68	4734.90
336.05	3852.52
336.42	3155.04
336.79	5137.48
337.16	4016.36
337.53	3267.39
337.90	2562.89
338.27	2977.16
338.64	2626.08
339.01	3983.59
339.38	4205.94
339.75	2497.35
340.12	2597.99
340.49	3412.50
340.86	6516.05
341.23	3990.61
341.60	3471.01
341.97	3918.06
342.34	2827.37
342.71	4559.36
343.08	5359.83
343.45	3620.81
343.82	4559.36
344.19	4418.93
344.55	4159.13
344.92	5509.62
345.29	3735.50
345.66	4121.68
346.03	3569.32
346.40	4489.15
346.77	2511.39
347.14	3782.31
347.51	4823.84
347.88	4587.45
348.25	4709.16
348.62	3768.26
348.99	3742.52
349.35	3653.58
349.72	3454.63
350.09	4365.10
350.46	4542.98
350.83	2747.79
351.20	4716.18
351.57	3768.26
351.94	3449.95
352.31	3112.91
352.67	4695.11
353.04	3335.26
353.41	2562.89
353.78	5771.76
354.15	5631.33
354.52	3272.07
354.89	3733.15
355.25	2815.66
355.62	3801.03
355.99	4510.21
356.36	2597.99
356.73	3311.86
357.10	3368.03
357.46	2265.64
357.83	2155.63
358.20	2862.48
358.57	6038.58
358.94	3819.75
359.30	3646.55
359.67	2944.39
360.04	2537.14
360.41	4301.90
360.78	3236.96
361.14	4753.63
361.51	4100.62
361.88	5514.30
362.25	4376.80
362.61	3190.15
362.98	3625.49
363.35	2843.75
363.72	5823.25
364.08	2586.29
364.45	4222.33
364.82	2717.36
365.19	2300.75
365.55	3665.28
365.92	3655.92
366.29	3592.72
366.66	2928.01
367.02	3272.07
367.39	2572.25
367.76	2813.32
368.13	3213.56
368.49	2422.45
368.86	2284.36
369.23	6630.74
369.59	2738.43
369.96	3241.64
370.33	2810.98
370.69	4215.30
371.06	2897.58
371.43	2670.55
371.79	3103.55
372.16	2572.25
372.53	3847.84
372.89	5284.93
373.26	4224.67
373.63	3922.74
373.99	3501.44
374.36	3192.49
374.73	4856.61
375.09	3779.97
375.46	5004.07
375.83	3363.35
376.19	3871.25
376.56	3569.32
376.93	11360.96
377.29	2572.25
377.66	5516.64
378.02	3786.99
378.39	5593.88
378.76	2932.69
379.12	3068.44
379.49	3538.89
379.85	3211.22
380.22	3276.75
380.59	6237.53
380.95	3791.67
381.32	3410.16
381.68	2810.98
382.05	4440.00
382.42	4142.75
382.78	4599.15
383.15	3471.01
383.51	2888.22
383.88	3555.27
384.24	3063.76
384.61	7398.43
384.97	2736.09
385.34	2413.09
385.70	8753.60
386.07	4660.01
386.44	2605.02
386.80	2279.68
387.17	5696.86
387.53	4425.95
387.90	3831.46
388.26	4325.31
388.63	5591.54
388.99	3646.55
389.36	3356.33
389.72	2399.05
390.09	6857.77
390.45	3115.25
390.82	4456.38
391.18	2834.39
391.55	5453.45
391.91	3449.95
392.28	4002.32
392.64	3119.93
393.00	3000.57
393.37	3466.33
393.73	4304.25
394.10	4966.62
394.46	4093.60
394.83	3957.85
395.19	4428.29
395.56	6817.98
395.92	3775.28
396.28	4671.71
396.65	5949.64
397.01	4435.32
397.38	4107.64
397.74	5149.18
398.11	4650.64
398.47	3681.66
398.83	4936.19
399.20	4561.70
399.56	4660.01
399.93	4021.04
400.29	3075.46
400.65	2972.48
401.02	5804.53
401.38	3510.80
401.74	3080.14
402.11	2712.68
402.47	7461.63
402.84	4292.54
403.20	5261.52
403.56	5664.10
403.93	3983.59
404.29	4329.99
404.65	7222.89
405.02	3702.73
405.38	4346.37
405.74	4205.94
406.11	2867.16
406.47	3588.04
406.83	2693.96
407.20	3269.73
407.56	3201.85
407.92	4622.56
408.29	2958.44
408.65	3141.00
409.01	2574.59
409.37	5308.34
409.74	2986.52
410.10	4950.23
410.46	3487.40
410.83	6279.66
411.19	3517.83
411.55	3150.36
411.91	4880.02
412.28	6282.00
412.64	6537.12
413.00	4011.68
413.36	3304.84
413.73	6429.45
414.09	4028.06
414.45	3103.55
414.81	3428.88
415.18	4004.66
415.54	2738.43
415.90	2509.05
416.26	3304.84
416.63	8025.70
416.99	3700.39
417.35	3946.14
417.71	4299.56
418.07	7213.53
418.44	7241.62
418.80	3166.74
419.16	3461.65
419.52	4325.31
419.88	5181.95
420.25	4355.74
420.61	3419.52
420.97	3110.57
421.33	3967.21
421.69	2871.84
422.05	3473.36
422.42	5870.06
422.78	3992.95
423.14	6181.35
423.50	3499.10
423.86	2733.75
424.22	3653.58
424.58	2864.82
424.95	4065.51
425.31	4980.66
425.67	4250.41
426.03	2569.91
426.39	4624.90
426.75	2385.01
427.11	4606.17
427.47	4044.45
427.83	2810.98
428.20	4404.89
428.56	4353.40
428.92	3297.81
429.28	6083.05
429.64	6370.94
430.00	4147.43
430.36	5724.95
430.72	3241.64
431.08	3363.35
431.44	2530.12
431.80	2551.18
432.16	2511.39
432.52	2883.54
432.88	5095.35
433.25	8301.88
433.61	5006.41
433.97	2878.86
434.33	3803.37
434.69	6719.68
435.05	2911.63
435.41	4732.56
435.77	2967.80
436.13	2012.86
436.49	2572.25
436.85	3627.83
437.21	4629.58
437.57	3328.24
437.93	2801.62
438.29	3091.85
438.65	3826.78
439.01	5004.07
439.37	3810.39
439.73	3765.92
440.09	3435.91
440.45	4418.93
440.81	3337.60
441.17	4222.33
441.53	5006.41
441.88	3251.00
442.24	2726.72
442.60	2623.74
442.96	3655.92
443.32	3040.36
443.68	4023.38
444.04	3405.48
444.40	3868.91
444.76	5118.75
445.12	6258.59
445.48	4873.00
445.84	4924.49
446.20	3426.54
446.55	2394.37
446.91	4830.87
447.27	4629.58
447.63	4435.32
447.99	4079.55
448.35	2766.51
448.71	2406.07
449.07	3279.09
449.43	2576.93
449.78	2492.67
450.14	4542.98
450.50	6558.18
450.86	3606.77
451.22	4329.99
451.58	3943.80
451.94	2605.02
452.29	5586.86
452.65	4320.63
453.01	5614.95
453.37	2801.62
453.73	2338.20
454.09	2759.49
454.44	2780.56
454.80	2537.14
455.16	3405.48
455.52	4023.38
455.88	4788.74
456.23	2490.33
456.59	3997.64
456.95	3889.97
457.31	3805.71
457.67	2946.73
458.02	4365.10
458.38	2438.84
458.74	6019.86
459.10	2827.37
459.45	3857.20
459.81	3033.33
460.17	22911.50
460.53	2888.22
460.88	3646.55
461.24	4187.22
461.60	3885.29
461.96	3318.88
462.31	5104.71
462.67	3204.19
463.03	5301.31
463.39	3686.34
463.74	3494.42
464.10	2438.84
464.46	2960.78
464.81	2670.55
465.17	5343.44
465.53	3791.67
465.88	2541.82
466.24	2555.86
466.60	4362.76
466.95	3552.93
467.31	3349.31
467.67	2558.21
468.03	7267.36
468.38	4849.59
468.74	4582.77
469.09	3087.17
469.45	4753.63
469.81	4011.68
470.16	4327.65
470.52	5107.05
470.88	4725.54
471.23	3852.52
471.59	3030.99
471.95	6492.65
472.30	3990.61
472.66	5624.31
473.01	6918.62
473.37	6204.76
473.73	3623.15
474.08	3073.12
474.44	3545.91
474.79	3213.56
475.15	3496.76
475.51	2359.26
475.86	2403.73
476.22	4978.32
476.57	4978.32
476.93	2628.42
477.29	3569.32
477.64	3754.22
478.00	5483.88
478.35	2375.64
478.71	3499.10
479.06	3112.91
479.42	5123.43
479.77	6216.46
480.13	2602.68
480.48	3983.59
480.84	3309.52
481.19	4667.03
481.55	4236.37
481.91	4390.84
482.26	3662.94
482.62	3131.64
482.97	3304.84
483.33	3126.96
483.68	3805.71
484.04	6457.54
484.39	4032.74
484.74	2960.78
485.10	2724.38
485.45	4737.24
485.81	6331.15
486.16	5570.48
486.52	3534.21
486.87	3632.51
487.23	3442.93
487.58	4215.30
487.94	2708.00
488.29	5282.59
488.65	4142.75
489.00	6743.08
489.35	3859.54
489.71	5245.14
490.06	4912.78
490.42	4250.41
490.77	4671.71
491.12	5158.54
491.48	6043.26
491.83	5916.87
492.19	4381.48
492.54	3791.67
492.89	4372.12
493.25	3810.39
493.60	5074.28
493.96	5200.67
494.31	7772.92
494.66	7023.95
495.02	6881.18
495.37	5921.56
495.72	6380.30
496.08	7819.73
496.43	5888.79
496.79	8573.38
497.14	5884.11
497.49	6033.90
497.85	7040.33
498.20	6377.96
498.55	7365.67
498.91	7386.73
499.26	8531.25
499.61	9891.10
499.96	7880.58
500.32	9327.03
500.67	10635.39
501.02	7152.68
501.38	6298.38
501.73	13631.28
502.08	8053.78
502.44	8088.89
502.79	8109.96
503.14	7585.68
503.49	6916.28
503.85	8573.38
504.20	6970.12
504.55	7538.87
504.90	12786.35
505.26	9453.42
505.61	7719.09
505.96	8002.29
506.31	8046.76
506.67	9860.68
507.02	7463.97
507.37	6565.20
507.72	8271.45
508.08	13425.31
508.43	7803.35
508.78	7613.76
509.13	11477.99
509.48	7969.52
509.84	8194.22
510.19	9097.66
510.54	8517.21
510.89	8552.32
511.24	7272.04
511.59	11442.88
511.95	9329.38
512.30	7740.15
512.65	10513.69
513.00	7431.20
513.35	8872.97
513.70	8861.27
514.06	10553.48
514.41	8580.40
514.76	7981.23
515.11	7487.37
515.46	6761.81
515.81	8769.99
516.16	10284.31
516.52	10403.68
516.87	6972.46
517.22	6642.44
517.57	9837.27
517.92	8781.69
518.27	7302.47
518.62	10244.52
518.97	7791.64
519.32	7775.26
519.67	9156.18
520.03	7316.51
520.38	8727.86
520.73	7833.77
521.08	8961.91
521.43	9668.75
521.78	9528.32
522.13	7159.70
522.48	7948.46
522.83	8067.83
523.18	7054.37
523.53	9095.32
523.88	7159.70
524.23	9394.91
524.58	6951.39
524.93	7803.35
525.28	10040.90
525.63	8393.16
525.98	10841.36
526.33	10771.15
526.68	8348.69
527.03	9334.06
527.38	7943.78
527.73	6225.82
528.08	8013.99
528.43	7712.07
528.78	7431.20
529.13	8025.70
529.48	8697.43
529.83	7452.27
530.18	6431.79
530.53	8634.24
530.88	7990.59
531.23	6682.23
531.58	7637.17
531.93	8882.33
532.28	8557.00
532.63	10279.63
532.98	6148.59
533.33	9359.80
533.68	6394.34
534.02	6352.21
534.37	6115.82
534.72	6099.44
535.07	8582.74
535.42	7398.43
535.77	6633.08
536.12	6476.26
536.47	6417.75
536.82	8142.72
537.17	8720.84
537.51	6057.31
537.86	5830.27
538.21	6352.21
538.56	10026.86
538.91	6162.63
539.26	5757.72
539.61	8582.74
539.95	9259.16
540.30	5762.40
540.65	6747.76
541.00	6031.56
541.35	9589.17
541.70	9135.11
542.04	7206.51
542.39	9357.46
542.74	6459.88
543.09	5624.31
543.44	7557.59
543.78	6483.28
544.13	6284.34
544.48	8713.81
544.83	7164.38
545.18	5977.73
545.52	7777.60
545.87	7962.50
546.22	5493.24
546.57	6143.91
546.91	5734.31
547.26	5856.02
547.61	7798.66
547.96	7819.73
548.30	5640.69
548.65	7208.85
549.00	6403.71
549.35	6740.74
549.69	6778.19
550.04	6305.40
550.39	5467.49
550.74	5516.64
551.08	8224.64
551.43	7309.49
551.78	5610.26
552.12	7899.31
552.47	7438.22
552.82	7545.89
553.17	6682.23
553.51	6565.20
553.86	7878.24
554.21	6712.66
554.55	6345.19
554.90	6972.46
555.25	7398.43
555.59	8395.50
555.94	5610.26
556.29	6282.00
556.63	5308.34
556.98	7955.48
557.32	7674.62
557.67	5598.56
558.02	5390.25
558.36	7686.32
558.71	4887.04
559.06	6087.73
559.40	6010.50
559.75	4781.71
560.09	5490.90
560.44	5518.98
560.79	6392.00
561.13	5516.64
561.48	6148.59
561.82	6246.89
562.17	4767.67
562.52	5502.60
562.86	5930.92
563.21	6307.74
563.55	5217.05
563.90	5830.27
564.24	6532.44
564.59	5860.70
564.94	7073.10
565.28	7206.51
565.63	6738.40
565.97	5523.66
566.32	6881.18
566.66	7459.29
567.01	4774.69
567.35	6354.55
567.70	6368.60
568.04	4849.59
568.39	4585.11
568.73	7063.74
569.08	6071.35
569.42	5526.00
569.77	6272.64
570.11	7307.15
570.46	5877.09
570.80	5254.50
571.15	8376.78
571.49	5076.62
571.84	4999.38
572.18	9053.19
572.52	8819.14
572.87	4514.89
573.21	6422.43
573.56	5256.84
573.90	5039.17
574.25	6136.88
574.59	4404.89
574.94	9088.30
575.28	7276.73
575.62	5270.89
575.97	4524.26
576.31	4924.49
576.66	4973.64
577.00	4929.17
577.34	5554.09
577.69	4367.44
578.03	6548.82
578.38	4957.25
578.72	5242.80
579.06	5940.28
579.41	4959.60
579.75	5413.66
580.09	7669.94
580.44	6270.30
580.78	6375.62
581.12	4395.53
581.47	4837.89
581.81	4191.90
582.16	3985.93
582.50	5863.04
582.84	4580.43
583.19	5774.10
583.53	7859.52
583.87	5547.07
584.21	5203.01
584.56	3915.72
584.90	4498.51
585.24	6864.79
585.59	4685.75
585.93	5605.58
586.27	7337.58
586.62	3892.31
586.96	6640.10
587.30	9008.72
587.64	3796.35
587.99	4945.55
588.33	4472.76
588.67	6918.62
589.01	5568.13
589.36	4674.05
589.70	7726.11
590.04	4372.12
590.38	4072.53
590.73	5568.13
591.07	3896.99
591.41	4390.84
591.75	6857.77
592.09	4978.32
592.44	5020.45
592.78	5034.49
593.12	7515.46
593.46	5919.21
593.80	4285.52
594.15	3772.94
594.49	5614.95
594.83	7559.93
595.17	4898.74
595.51	3590.38
595.85	6696.27
596.20	4613.20
596.54	4063.17
596.88	3159.72
597.22	3676.98
597.56	7852.50
597.90	4056.15
598.25	6169.65
598.59	3803.37
598.93	5167.90
599.27	5165.56
599.61	7262.68
599.95	5153.86
600.29	6815.64
600.63	6214.12
600.97	4063.17
601.32	5081.30
601.66	3899.33
602.00	3588.04
602.34	3911.04
602.68	6249.23
603.02	4952.57
603.36	4311.27
603.70	3307.18
604.04	5305.99
604.38	4049.13
604.72	8620.19
605.06	5334.08
605.40	6129.86
605.74	5947.30
606.08	5273.23
606.43	4393.19
606.77	4791.08
607.11	5334.08
607.45	3801.03
607.79	5224.08
608.13	4725.54
608.47	5416.00
608.81	4819.16
609.15	4779.37
609.49	5905.17
609.83	7061.40
610.17	6415.41
610.51	4861.29
610.85	7899.31
611.19	3946.14
611.52	5631.33
611.86	4126.36
612.20	4540.64
612.54	5137.48
612.88	3358.67
613.22	6181.35
613.56	3988.27
613.90	5043.85
614.24	6942.03
614.58	5308.34
614.92	4550.00
615.26	3080.14
615.60	7737.81
615.94	4802.78
