SpectraSuite Data File
++++++++++++++++++++++++++++++++++++
Date: Tue Jun 09 14:29:59 CEST 2015
User: jiasu
Dark Spectrum Present: No
Reference Spectrum Present: No
Number of Sampled Component Spectra: 1
Spectrometers: USB2+F02403
Integration Time (usec): 30000000 (USB2+F02403)
Spectra Averaged: 1 (USB2+F02403)
Boxcar Smoothing: 0 (USB2+F02403)
Correct for Electrical Dark: No (USB2+F02403)
Strobe/Lamp Enabled: No (USB2+F02403)
Correct for Detector Non-linearity: No (USB2+F02403)
Correct for Stray Light: No (USB2+F02403)
Number of Pixels in Processed Spectrum: 2048
>>>>>Begin Processed Spectral Data<<<<<
177.51	653.01
177.90	653.01
178.28	653.01
178.67	491.51
179.05	449.38
179.44	9210.01
179.82	3646.55
180.20	15517.75
180.59	4702.14
180.97	4753.63
181.36	6803.94
181.74	6726.70
182.12	4533.62
182.51	6883.52
182.89	5462.81
183.28	6651.80
183.66	5032.15
184.04	6944.37
184.43	5060.24
184.81	4437.66
185.19	4421.27
185.58	8482.10
185.96	8217.62
186.35	3365.69
186.73	6810.96
187.11	9603.22
187.50	8589.77
187.88	6352.21
188.26	6363.92
188.65	5242.80
189.03	3555.27
189.41	4582.77
189.80	13163.17
190.18	5460.47
190.56	5951.98
190.95	6085.39
191.33	6090.07
191.71	7515.46
192.10	6665.85
192.48	7035.65
192.86	3957.85
193.25	10682.20
193.63	3124.62
194.01	7683.98
194.40	4121.68
194.78	8053.78
195.16	3421.86
195.54	7360.98
195.93	3559.95
196.31	5317.70
196.69	4074.87
197.08	6256.25
197.46	5951.98
197.84	4711.50
198.22	11351.60
198.61	4016.36
198.99	7707.38
199.37	3398.46
199.75	4222.33
200.14	5338.76
200.52	6377.96
200.90	4627.24
201.28	4475.10
201.67	8624.87
202.05	5081.30
202.43	7091.82
202.81	5214.71
203.20	2605.02
203.58	6710.32
203.96	5490.90
204.34	8152.09
204.72	5659.42
205.11	4985.34
205.49	6012.84
205.87	6705.63
206.25	7061.40
206.63	4402.55
207.02	4042.11
207.40	5605.58
207.78	5025.13
208.16	6462.22
208.54	4800.44
208.93	3459.31
209.31	10326.44
209.69	5832.62
210.07	3173.77
210.45	4905.76
210.83	6707.98
211.22	5298.97
211.60	5521.32
211.98	3059.08
212.36	3082.49
212.74	4105.30
213.12	3899.33
213.50	3468.67
213.89	4791.08
214.27	7384.39
214.65	6239.87
215.03	7260.34
215.41	5998.79
215.79	3737.84
216.17	2462.24
216.55	6825.00
216.94	7234.60
217.32	4079.55
217.70	5521.32
218.08	4215.30
218.46	3632.51
218.84	3052.06
219.22	6993.52
219.60	3653.58
219.98	10113.45
220.36	6104.12
220.74	5729.63
221.12	7414.82
221.51	3541.23
221.89	3857.20
222.27	7946.12
222.65	4477.44
223.03	4348.72
223.41	2466.92
223.79	6494.99
224.17	5373.87
224.55	4313.61
224.93	4552.34
225.31	6307.74
225.69	4809.80
226.07	4912.78
226.45	3155.04
226.83	6352.21
227.21	2422.45
227.59	5008.75
227.97	5849.00
228.35	5680.48
228.73	8409.54
229.11	4601.49
229.49	8802.75
229.87	3061.42
230.25	5242.80
230.63	4287.86
231.01	3428.88
231.39	7702.70
231.77	4784.06
232.15	3485.06
232.53	6544.14
232.91	8950.21
233.29	6272.64
233.67	4889.38
234.05	4063.17
234.43	8245.71
234.81	8353.37
235.19	2780.56
235.57	3985.93
235.95	9167.88
236.33	4865.97
236.71	4416.59
237.09	4552.34
237.47	3618.47
237.84	6413.07
238.22	9741.31
238.60	4542.98
238.98	5926.24
239.36	4376.80
239.74	6399.02
240.12	4968.96
240.50	4468.08
240.88	10005.79
241.26	5935.60
241.64	5195.99
242.01	6476.26
242.39	6469.24
242.77	3389.10
243.15	2956.10
243.53	3555.27
243.91	2808.64
244.29	4418.93
244.67	3302.50
245.04	5149.18
245.42	4411.91
245.80	4573.41
246.18	4718.52
246.56	3091.85
246.94	4372.12
247.32	5886.45
247.69	4887.04
248.07	6984.16
248.45	5923.90
248.83	3251.00
249.21	3480.38
249.59	5729.63
249.96	9036.81
250.34	4252.75
250.72	10073.67
251.10	7033.31
251.48	3506.12
251.86	5844.32
252.23	3999.98
252.61	5093.01
252.99	6548.82
253.37	3274.41
253.74	3550.59
254.12	4306.59
254.50	5624.31
254.88	5146.84
255.26	6296.04
255.63	4014.02
256.01	10874.13
256.39	3925.08
256.77	4051.47
257.14	5715.59
257.52	6888.20
257.90	2855.45
258.28	4290.20
258.65	3103.55
259.03	3180.79
259.41	3061.42
259.79	3616.13
260.16	4395.53
260.54	5907.51
260.92	4369.78
261.30	7405.46
261.67	3449.95
262.05	9474.49
262.43	4030.40
262.80	5102.37
263.18	5345.78
263.56	5425.36
263.94	3777.62
264.31	5406.64
264.69	5870.06
265.07	5427.70
265.44	3155.04
265.82	6431.79
266.20	3112.91
266.57	6546.48
266.95	5586.86
267.33	5774.10
267.70	11375.00
268.08	7456.95
268.46	6106.46
268.83	4898.74
269.21	5093.01
269.59	4358.08
269.96	6668.19
270.34	6904.58
270.71	10394.32
271.09	4124.02
271.47	4573.41
271.84	4617.88
272.22	7742.49
272.60	6092.41
272.97	2895.24
273.35	2801.62
273.72	9540.02
274.10	3822.09
274.48	6324.13
274.85	4353.40
275.23	5921.56
275.60	4774.69
275.98	3845.50
276.36	4952.57
276.73	4702.14
277.11	6633.08
277.48	5518.98
277.86	3442.93
278.24	3351.65
278.61	3290.79
278.99	3197.17
279.36	7288.43
279.74	7974.21
280.11	3545.91
280.49	6700.95
280.86	6382.64
281.24	3627.83
281.61	5036.83
281.99	10183.67
282.37	7688.66
282.74	5570.48
283.12	4304.25
283.49	3854.86
283.87	10483.26
284.24	4772.35
284.62	5533.03
284.99	4781.71
285.37	5022.79
285.74	5231.10
286.12	3988.27
286.49	2708.00
286.87	2518.42
287.24	5298.97
287.62	3707.41
287.99	7599.72
288.37	7417.16
288.74	5551.75
289.12	6670.53
289.49	4458.72
289.86	5579.84
290.24	4297.22
290.61	4994.70
290.99	4528.94
291.36	2846.09
291.74	7976.55
292.11	3300.16
292.49	3129.30
292.86	6195.40
293.23	4138.07
293.61	4285.52
293.98	5926.24
294.36	5022.79
294.73	4016.36
295.11	2750.13
295.48	3913.38
295.85	7040.33
296.23	5186.63
296.60	3964.87
296.98	3215.90
297.35	4346.37
297.72	3229.94
298.10	3222.92
298.47	3145.68
298.85	4023.38
299.22	12641.23
299.59	2553.52
299.97	4873.00
300.34	3953.16
300.71	9781.10
301.09	4360.42
301.46	5666.44
301.83	4933.85
302.21	3964.87
302.58	6057.31
302.95	8781.69
303.33	6115.82
303.70	4526.60
304.07	5795.17
304.45	7520.14
304.82	7115.23
305.19	4910.44
305.57	2731.41
305.94	9430.02
306.31	6794.58
306.69	4264.46
307.06	4851.93
307.43	2708.00
307.81	5516.64
308.18	6223.48
308.55	9331.72
308.92	3992.95
309.30	6408.39
309.67	5937.94
310.04	5219.39
310.42	4917.47
310.79	6078.37
311.16	4016.36
311.53	4650.64
311.91	5177.26
312.28	4994.70
312.65	3274.41
313.02	6544.14
313.40	6569.88
313.77	2686.94
314.14	8121.66
314.51	5085.98
314.89	9593.86
315.26	5231.10
315.63	3637.19
316.00	5607.92
316.37	4227.01
316.75	4533.62
317.12	3716.77
317.49	4030.40
317.86	10122.82
318.23	6513.71
318.61	5645.37
318.98	3346.97
319.35	5102.37
319.72	7901.65
320.09	7171.40
320.47	5310.68
320.84	4779.37
321.21	6106.46
321.58	4910.44
321.95	6211.78
322.32	3489.74
322.70	4461.06
323.07	5174.92
323.44	6237.53
323.81	5102.37
324.18	5867.72
324.55	9530.66
324.92	6043.26
325.30	2429.48
325.67	7021.61
326.04	5502.60
326.41	4205.94
326.78	3534.21
327.15	5984.75
327.52	10787.53
327.89	4166.15
328.27	5207.69
328.64	8156.77
329.01	5039.17
329.38	7634.83
329.75	8170.81
330.12	3164.40
330.49	4800.44
330.86	4521.92
331.23	8035.06
331.60	5654.73
331.97	6623.72
332.34	3808.05
332.71	5057.90
333.09	4100.62
333.46	4166.15
333.83	5837.30
334.20	4517.23
334.57	5600.90
334.94	4884.70
335.31	3384.41
335.68	6040.92
336.05	4554.68
336.42	3545.91
336.79	6726.70
337.16	4959.60
337.53	3962.53
337.90	2773.53
338.27	3534.21
338.64	2860.13
339.01	4753.63
339.38	5102.37
339.75	2703.32
340.12	2881.20
340.49	4145.09
340.86	8451.67
341.23	4915.12
341.60	4161.47
341.97	4690.43
342.34	3155.04
342.71	5715.59
343.08	6768.83
343.45	4395.53
343.82	5444.09
344.19	5626.65
344.55	4924.49
344.92	7037.99
345.29	4589.79
345.66	5053.22
346.03	4269.14
346.40	5636.01
346.77	2815.66
347.14	4688.09
347.51	6073.69
347.88	5914.53
348.25	5921.56
348.62	4669.37
348.99	4727.88
349.35	4456.38
349.72	4095.94
350.09	5771.76
350.46	5736.65
350.83	3297.81
351.20	5987.09
351.57	4461.06
351.94	4201.26
352.31	3625.49
352.67	5696.86
353.04	4107.64
353.41	3052.06
353.78	5556.43
354.15	6885.86
354.52	3885.29
354.89	4671.71
355.25	3276.75
355.62	4762.99
355.99	5650.05
356.36	2960.78
356.73	4042.11
357.10	3978.91
357.46	2455.22
357.83	2314.79
358.20	3346.97
358.57	7686.32
358.94	4578.09
359.30	4486.81
359.67	3454.63
360.04	2731.41
360.41	5310.68
360.78	3735.50
361.14	6012.84
361.51	5006.41
361.88	6839.05
362.25	5193.65
362.61	3789.33
362.98	4173.18
363.35	3335.26
363.72	7686.32
364.08	2757.15
364.45	5090.67
364.82	3157.38
365.19	2562.89
365.55	4521.92
365.92	4578.09
366.29	4329.99
366.66	3419.52
367.02	3838.48
367.39	2794.60
367.76	3459.31
368.13	3639.53
368.49	2710.34
368.86	2523.10
369.23	8767.65
369.59	3087.17
369.96	4014.02
370.33	3314.20
370.69	5128.11
371.06	3318.88
371.43	3002.91
371.79	3576.34
372.16	2878.86
372.53	4887.04
372.89	6792.23
373.26	5013.43
373.63	4723.20
373.99	4315.95
374.36	3866.56
374.73	5874.74
375.09	4741.93
375.46	6363.92
375.83	3957.85
376.19	4908.10
376.56	4351.06
376.93	15702.65
377.29	2801.62
377.66	6951.39
378.02	4645.96
378.39	7094.16
378.76	3438.25
379.12	3744.86
379.49	4435.32
379.85	3908.69
380.22	3836.14
380.59	8154.43
380.95	4521.92
381.32	3983.59
381.68	3267.39
382.05	5369.19
382.42	4936.19
382.78	5720.27
383.15	4098.28
383.51	3183.13
383.88	4205.94
384.24	3667.62
384.61	9863.02
384.97	3035.67
385.34	2553.52
385.70	11737.79
386.07	5647.71
386.44	2909.29
386.80	2513.74
387.17	7316.51
387.53	5383.23
387.90	4550.00
388.26	5207.69
388.63	7276.73
388.99	4535.96
389.36	4065.51
389.72	2661.19
390.09	5130.45
390.45	3531.87
390.82	5692.18
391.18	3225.26
391.55	6988.84
391.91	4299.56
392.28	4840.23
392.64	3744.86
393.00	3503.78
393.37	4126.36
393.73	5500.26
394.10	6267.95
394.46	5165.56
394.83	4870.65
395.19	5465.15
395.56	9149.15
395.92	4465.74
396.28	5860.70
396.65	7843.14
397.01	5160.88
397.38	5050.88
397.74	6644.78
398.11	5940.28
398.47	4503.19
398.83	6183.70
399.20	5884.11
399.56	5771.76
399.93	4940.87
400.29	3609.11
400.65	3414.84
401.02	7400.77
401.38	4049.13
401.74	3742.52
402.11	3129.30
402.47	10134.52
402.84	5231.10
403.20	6480.94
403.56	7459.29
403.93	5036.83
404.29	5343.44
404.65	9827.91
405.02	4358.08
405.38	5476.85
405.74	5069.60
406.11	3353.99
406.47	4575.75
406.83	2883.54
407.20	3948.48
407.56	3992.95
407.92	5596.22
408.29	3328.24
408.65	3735.50
409.01	2953.76
409.37	6726.70
409.74	3482.72
410.10	6263.27
410.46	4070.19
410.83	8161.45
411.19	4166.15
411.55	3658.26
411.91	6272.64
412.28	8320.60
412.64	8559.34
413.00	4973.64
413.36	4098.28
413.73	8280.82
414.09	4964.28
414.45	3562.30
414.81	4095.94
415.18	5018.11
415.54	3185.47
415.90	2691.62
416.26	3983.59
416.63	10485.60
416.99	4369.78
417.35	4873.00
417.71	5329.40
418.07	9385.55
418.44	9423.00
418.80	3637.19
419.16	4166.15
419.52	5320.04
419.88	6534.78
420.25	5399.62
420.61	4042.11
420.97	3695.71
421.33	5128.11
421.69	3269.73
422.05	4187.22
422.42	7625.47
422.78	4877.68
423.14	6010.50
423.50	4402.55
423.86	3183.13
424.22	4491.49
424.58	3485.06
424.95	5041.51
425.31	6267.95
425.67	5446.43
426.03	2612.04
426.39	6141.57
426.75	2691.62
427.11	6010.50
427.47	4903.42
427.83	3229.94
428.20	5685.16
428.56	5469.83
428.92	4058.49
429.28	7719.09
429.64	8231.66
430.00	4968.96
430.36	7410.14
430.72	3955.51
431.08	3908.69
431.44	2736.09
431.80	3059.08
432.16	2579.27
432.52	3492.08
432.88	6665.85
433.25	11494.37
433.61	6562.86
433.97	3276.75
434.33	4880.02
434.69	8748.92
435.05	3314.20
435.41	5996.45
435.77	3499.10
436.13	2279.68
436.49	2949.08
436.85	4688.09
437.21	5689.84
437.57	3861.88
437.93	3253.34
438.29	3616.13
438.65	4833.21
439.01	6342.85
439.37	4772.35
439.73	4496.17
440.09	4060.83
440.45	5533.03
440.81	3943.80
441.17	5329.40
441.53	6368.60
441.88	3824.44
442.24	3098.87
442.60	2988.86
442.96	4840.23
443.32	3487.40
443.68	5067.26
444.04	4063.17
444.40	4873.00
444.76	6663.51
445.12	8004.63
445.48	6183.70
445.84	6469.24
446.20	4294.88
446.55	2595.65
446.91	6120.50
447.27	5902.83
447.63	5687.50
447.99	5146.84
448.35	3110.57
448.71	2719.70
449.07	3840.82
449.43	2918.65
449.78	2878.86
450.14	5621.97
450.50	8641.26
450.86	4477.44
451.22	5516.64
451.58	4774.69
451.94	2977.16
452.29	7480.35
452.65	5357.49
453.01	7665.25
453.37	3192.49
453.73	2710.34
454.09	3309.52
454.44	3227.60
454.80	2883.54
455.16	4329.99
455.52	5179.61
455.88	6090.07
456.23	2991.20
456.59	5018.11
456.95	4964.28
457.31	4748.95
457.67	3562.30
458.02	5252.16
458.38	2818.00
458.74	7918.03
459.10	3166.74
459.45	4650.64
459.81	3585.70
460.17	32290.03
460.53	3145.68
460.88	4425.95
461.24	5453.45
461.60	4971.30
461.96	4163.81
462.31	6782.87
462.67	3845.50
463.03	6771.17
463.39	4697.46
463.74	4449.36
464.10	2869.50
464.46	3667.62
464.81	3159.72
465.17	7021.61
465.53	4711.50
465.88	3108.23
466.24	3117.59
466.60	5462.81
466.95	4365.10
467.31	4067.85
467.67	2998.23
468.03	9680.46
468.38	6101.78
468.74	6043.26
469.09	3756.56
469.45	6136.88
469.81	5130.45
470.16	5387.91
470.52	6607.33
470.88	6310.08
471.23	4788.74
471.59	3604.42
471.95	8514.87
472.30	4922.15
472.66	7478.01
473.01	8950.21
473.37	8065.49
473.73	4528.94
474.08	3815.07
474.44	4514.89
474.79	4229.35
475.15	4535.96
475.51	2731.41
475.86	2923.33
476.22	6539.46
476.57	6401.37
476.93	3246.32
477.29	4767.67
477.64	4826.18
478.00	7155.02
478.35	2904.60
478.71	4550.00
479.06	3927.42
479.42	6768.83
479.77	8285.50
480.13	3243.98
480.48	5481.53
480.84	4215.30
481.19	6300.72
481.55	5565.79
481.91	5998.79
482.26	4997.04
482.62	4091.26
482.97	4547.66
483.33	3981.25
483.68	5373.87
484.04	7609.08
484.39	5401.96
484.74	4112.32
485.10	3892.31
485.45	6853.09
485.81	9149.15
486.16	7925.05
486.52	4964.28
486.87	5303.65
487.23	5156.20
487.58	6333.49
487.94	4362.76
488.29	8369.76
488.65	6787.55
489.00	10485.60
489.35	6502.01
489.71	8791.05
490.06	8500.83
490.42	7581.00
490.77	8400.18
491.12	9179.58
491.48	11147.97
491.83	11325.85
492.19	9284.91
492.54	9013.40
492.89	10443.47
493.25	10768.80
493.60	13514.25
493.96	14335.78
494.31	19496.66
494.66	19583.26
495.02	20706.72
495.37	20397.77
495.72	22281.90
496.08	25947.18
496.43	24519.45
496.79	29420.53
497.14	25881.64
497.49	27190.00
497.85	28840.08
498.20	28720.71
498.55	31323.39
498.91	31648.72
499.26	33249.65
499.61	35784.45
499.96	33088.15
500.32	35634.66
500.67	37240.26
501.02	32477.27
501.38	31412.33
501.73	41872.18
502.08	33127.94
502.44	33750.52
502.79	33340.93
503.14	32517.06
503.49	31360.84
503.85	34352.04
504.20	31817.24
504.55	32498.34
504.90	40643.40
505.26	35695.51
505.61	32861.12
505.96	33914.36
506.31	33516.47
506.67	36168.30
507.02	32959.42
507.37	31789.16
507.72	34801.43
508.08	42323.91
508.43	33682.65
508.78	33951.81
509.13	39791.45
509.48	34707.80
509.84	34913.77
510.19	35971.69
510.54	35405.28
510.89	35145.48
511.24	33301.14
511.59	39545.69
511.95	36463.21
512.30	34202.25
512.65	38024.34
513.00	33677.97
513.35	36079.36
513.70	36290.01
514.06	38415.21
514.41	35641.68
514.76	34813.13
515.11	34078.20
515.46	33230.93
515.81	36144.89
516.16	38012.64
516.52	38052.43
516.87	33493.07
517.22	33006.23
517.57	38583.73
517.92	36367.24
518.27	33666.27
518.62	38396.49
518.97	35012.07
519.32	35182.93
519.67	36584.91
520.03	34660.99
520.38	36517.04
520.73	35274.21
521.08	37118.56
521.43	37574.96
521.78	37846.46
522.13	33795.00
522.48	35379.54
522.83	35632.32
523.18	33977.56
523.53	36753.43
523.88	33851.17
524.23	37832.42
524.58	33483.70
524.93	35290.60
525.28	37820.72
525.63	35402.94
525.98	38937.15
526.33	38405.85
526.68	34960.58
527.03	35475.50
527.38	33872.23
527.73	31880.44
528.08	34279.49
528.43	33464.98
528.78	33216.88
529.13	34286.51
529.48	35044.84
529.83	32917.29
530.18	31428.71
530.53	34462.05
530.88	33434.55
531.23	31618.30
531.58	32446.85
531.93	34017.35
532.28	33116.24
532.63	36093.40
532.98	29862.90
533.33	35306.98
533.68	30036.09
534.02	29706.08
534.37	29661.61
534.72	29198.18
535.07	32746.44
535.42	31164.23
535.77	30141.42
536.12	29153.71
536.47	29366.70
536.82	31695.53
537.17	32271.31
537.51	28477.30
537.86	27953.02
538.21	28341.55
538.56	33848.83
538.91	27931.95
539.26	27346.82
539.61	31700.22
539.95	32341.52
540.30	26796.79
540.65	28481.98
541.00	27285.97
541.35	32032.57
541.70	31604.25
542.04	28425.81
542.39	31470.84
542.74	26789.77
543.09	26230.38
543.44	28875.19
543.78	26909.14
544.13	26738.28
544.48	30747.62
544.83	27520.02
545.18	25820.79
545.52	28826.04
545.87	28484.32
546.22	24634.14
546.57	25914.41
546.91	25025.01
547.26	25656.95
547.61	27625.34
547.96	27316.39
548.30	24451.58
548.65	26827.22
549.00	25406.52
549.35	25804.41
549.69	25577.37
550.04	25202.89
550.39	23676.86
550.74	23737.71
551.08	27550.45
551.43	26237.41
551.78	23332.80
552.12	26721.90
552.47	26001.01
552.82	26181.23
553.17	24432.85
553.51	24278.38
553.86	26499.55
554.21	24107.52
554.55	23620.69
554.90	24718.40
555.25	24996.92
555.59	26834.24
555.94	22148.49
556.29	23321.10
556.63	21336.32
556.98	25827.81
557.32	25078.84
557.67	21652.30
558.02	21083.55
558.36	24898.62
558.71	20393.09
559.06	22548.72
559.40	21951.88
559.75	19873.49
560.09	20929.07
560.44	20919.71
560.79	20858.85
561.13	20695.02
561.48	21600.80
561.82	22319.35
562.17	19356.23
562.52	20379.04
562.86	20999.29
563.21	21638.25
563.55	19896.89
563.90	21078.86
564.24	21769.32
564.59	20891.62
564.94	22616.60
565.28	22434.03
565.63	21996.35
565.97	19536.45
566.32	21507.18
566.66	22768.73
567.01	18471.51
567.35	20498.41
567.70	20655.23
568.04	18214.05
568.39	17947.23
568.73	21640.59
569.08	20100.52
569.42	18862.38
569.77	20112.22
570.11	22052.53
570.46	19543.47
570.80	18649.39
571.15	23124.49
571.49	17921.48
571.84	17586.79
572.18	24037.30
572.52	23082.36
572.87	16882.28
573.21	19946.05
573.56	18125.11
573.90	17331.67
574.25	19176.01
574.59	16308.85
574.94	23466.21
575.28	20622.46
575.62	17001.65
575.97	16311.19
576.31	16737.17
576.66	16648.23
577.00	16652.91
577.34	17568.06
577.69	15602.01
578.03	19138.56
578.38	16432.90
578.72	16566.31
579.06	17729.56
579.41	16500.78
579.75	16725.47
580.09	20009.24
580.44	17752.96
580.78	17802.11
581.12	14752.40
581.47	15543.50
581.81	14457.49
582.16	14211.73
582.50	17212.30
582.84	14721.97
583.19	16367.37
583.53	19857.10
583.87	15723.72
584.21	15482.64
584.56	13338.71
584.90	14504.30
585.24	17774.03
585.59	14071.30
585.93	15667.55
586.27	18300.65
586.62	12655.28
586.96	16608.44
587.30	20563.95
587.64	12283.13
587.99	14321.74
588.33	13685.11
588.67	17055.48
589.01	15283.70
589.36	13612.56
589.70	18267.88
590.04	12908.05
590.38	12484.42
590.73	15302.42
591.07	12229.30
591.41	12940.82
591.75	16336.94
592.09	13752.99
592.44	13870.01
592.78	13926.19
593.12	17432.31
593.46	15033.26
593.80	12453.99
594.15	11468.62
594.49	14768.78
594.83	17652.32
595.17	12926.78
595.51	11269.68
595.85	16163.74
596.20	12477.40
596.54	11426.50
596.88	10410.70
597.22	11030.94
597.56	17404.22
597.90	11346.92
598.25	14963.04
598.59	11087.12
598.93	12933.80
599.27	13224.03
599.61	16203.53
599.95	13184.24
600.29	15578.61
600.63	14384.93
600.97	10862.43
601.32	12882.31
601.66	10939.66
602.00	10076.01
602.34	10991.16
602.68	14457.49
603.02	12196.53
603.36	11204.14
603.70	9734.29
604.04	12774.64
604.38	10691.57
604.72	17694.45
605.06	12250.36
605.40	13376.16
605.74	13575.11
606.08	12219.94
606.43	10714.97
606.77	11786.94
607.11	12233.98
607.45	9891.10
607.79	12453.99
608.13	11164.36
608.47	12287.81
608.81	11234.57
