SpectraSuite Data File
++++++++++++++++++++++++++++++++++++
Date: Tue Jun 09 14:17:13 CEST 2015
User: jiasu
Dark Spectrum Present: No
Reference Spectrum Present: No
Number of Sampled Component Spectra: 1
Spectrometers: USB2+F02403
Integration Time (usec): 30000000 (USB2+F02403)
Spectra Averaged: 1 (USB2+F02403)
Boxcar Smoothing: 0 (USB2+F02403)
Correct for Electrical Dark: No (USB2+F02403)
Strobe/Lamp Enabled: No (USB2+F02403)
Correct for Detector Non-linearity: No (USB2+F02403)
Correct for Stray Light: No (USB2+F02403)
Number of Pixels in Processed Spectrum: 2048
>>>>>Begin Processed Spectral Data<<<<<
177.51	767.70
177.90	767.70
178.28	767.70
178.67	538.32
179.05	552.37
179.44	8784.03
179.82	3616.13
180.20	15005.17
180.59	4664.69
180.97	4533.62
181.36	6661.16
181.74	6438.81
182.12	4449.36
182.51	6684.57
182.89	5273.23
183.28	6324.13
183.66	4919.81
184.04	6693.93
184.43	4940.87
184.81	4102.96
185.19	4255.09
185.58	8208.26
185.96	7885.26
186.35	3346.97
186.73	6492.65
187.11	9266.18
187.50	8308.90
187.88	6193.06
188.26	6160.29
188.65	5228.76
189.03	3548.25
189.41	4491.49
189.80	12723.15
190.18	5280.25
190.56	5944.96
190.95	5956.66
191.33	6019.86
191.71	7337.58
192.10	6464.56
192.48	6951.39
192.86	3864.22
193.25	10349.85
193.63	3063.76
194.01	7258.00
194.40	4018.70
194.78	7733.13
195.16	3309.52
195.54	7227.57
195.93	3370.37
196.31	5345.78
196.69	3939.12
197.08	6059.65
197.46	5713.25
197.84	4594.47
198.22	10850.72
198.61	3978.91
198.99	7506.10
199.37	3274.41
199.75	4168.49
200.14	5203.01
200.52	6291.36
200.90	4379.14
201.28	4234.03
201.67	8021.02
202.05	4877.68
202.43	6799.26
202.81	5390.25
203.20	2448.20
203.58	6567.54
203.96	5116.41
204.34	7985.91
204.72	5465.15
205.11	4774.69
205.49	5930.92
205.87	6583.93
206.25	6731.38
206.63	4339.35
207.02	4079.55
207.40	5495.58
207.78	5069.60
208.16	6380.30
208.54	4669.37
208.93	3393.78
209.31	9877.06
209.69	5530.69
210.07	3101.21
210.45	4851.93
210.83	6289.02
211.22	5057.90
211.60	5451.11
211.98	2939.71
212.36	3005.25
212.74	3808.05
213.12	3772.94
213.50	3330.58
213.89	4463.40
214.27	7222.89
214.65	6237.53
215.03	6885.86
215.41	5736.65
215.79	3679.32
216.17	2396.71
216.55	6539.46
216.94	6902.24
217.32	3981.25
217.70	5507.28
218.08	4060.83
218.46	3574.00
218.84	3033.33
219.22	6806.28
219.60	3466.33
219.98	9799.82
220.36	5891.13
220.74	5579.84
221.12	7384.39
221.51	3548.25
221.89	3908.69
222.27	7508.44
222.65	4322.97
223.03	4201.26
223.41	2487.99
223.79	6279.66
224.17	5261.52
224.55	4355.74
224.93	4301.90
225.31	6246.89
225.69	4718.52
226.07	4816.82
226.45	3115.25
226.83	6265.61
227.21	2532.46
227.59	5085.98
227.97	5736.65
228.35	5523.66
228.73	8077.19
229.11	4531.28
229.49	8547.64
229.87	2916.31
230.25	4999.38
230.63	4088.92
231.01	3304.84
231.39	7492.05
231.77	4601.49
232.15	3433.57
232.53	6078.37
232.91	8624.87
233.29	6036.24
233.67	4898.74
234.05	3857.20
234.43	7819.73
234.81	8044.42
235.19	2729.06
235.57	3999.98
235.95	8945.53
236.33	4877.68
236.71	4444.68
237.09	4402.55
237.47	3492.08
237.84	6038.58
238.22	9284.91
238.60	4634.26
238.98	5645.37
239.36	4362.76
239.74	6186.04
240.12	4950.23
240.50	4308.93
240.88	9481.51
241.26	5774.10
241.64	4983.00
242.01	6237.53
242.39	6352.21
242.77	3122.27
243.15	2981.84
243.53	3435.91
243.91	2764.17
244.29	4290.20
244.67	3190.15
245.04	4894.06
245.42	4301.90
245.80	4383.82
246.18	4648.30
246.56	3089.51
246.94	4358.08
247.32	5856.02
247.69	4734.90
248.07	6738.40
248.45	5750.70
248.83	3103.55
249.21	3243.98
249.59	5685.16
249.96	8753.60
250.34	4315.95
250.72	9537.68
251.10	7037.99
251.48	3581.02
251.86	5731.97
252.23	4056.15
252.61	4814.48
252.99	6162.63
253.37	3267.39
253.74	3534.21
254.12	4238.71
254.50	5537.71
254.88	4915.12
255.26	6129.86
255.63	3859.54
256.01	10274.95
256.39	3789.33
256.77	3875.93
257.14	5502.60
257.52	6567.54
257.90	2813.32
258.28	4301.90
258.65	3028.65
259.03	3133.98
259.41	2848.43
259.79	3407.82
260.16	4229.35
260.54	5607.92
260.92	4285.52
261.30	7155.02
261.67	3290.79
262.05	9212.35
262.43	4023.38
262.80	4910.44
263.18	4945.55
263.56	5217.05
263.94	3590.38
264.31	5100.03
264.69	5856.02
265.07	5144.50
265.44	3096.53
265.82	6181.35
266.20	3178.45
266.57	6188.38
266.95	5526.00
267.33	5628.99
267.70	10979.45
268.08	7272.04
268.46	5870.06
268.83	4858.95
269.21	4863.63
269.59	4315.95
269.96	6431.79
270.34	6626.06
270.71	9989.41
271.09	4077.21
271.47	4489.15
271.84	4414.25
272.22	7417.16
272.60	5951.98
272.97	2928.01
273.35	2738.43
273.72	9383.21
274.10	3803.37
274.48	6101.78
274.85	4219.99
275.23	5792.83
275.60	4652.98
275.98	3592.72
276.36	4880.02
276.73	4681.07
277.11	6532.44
277.48	5998.79
277.86	3454.63
278.24	3197.17
278.61	3108.23
278.99	3164.40
279.36	6906.92
279.74	7648.87
280.11	3492.08
280.49	6555.84
280.86	6057.31
281.24	3382.07
281.61	4716.18
281.99	9872.38
282.37	7499.08
282.74	5376.21
283.12	4255.09
283.49	3796.35
283.87	10061.96
284.24	4793.42
284.62	5177.26
284.99	4718.52
285.37	4880.02
285.74	5104.71
286.12	3964.87
286.49	2647.15
286.87	2562.89
287.24	5151.52
287.62	3651.24
287.99	7449.93
288.37	7281.41
288.74	5432.38
289.12	6471.58
289.49	4334.67
289.86	5425.36
290.24	4257.43
290.61	4875.34
290.99	4367.44
291.36	2806.30
291.74	7681.64
292.11	3269.73
292.49	3066.10
292.86	6134.54
293.23	4056.15
293.61	4372.12
293.98	5774.10
294.36	4901.08
294.73	3756.56
295.11	2712.68
295.48	3911.04
295.85	6654.14
296.23	5081.30
296.60	3871.25
296.98	3267.39
297.35	4145.09
297.72	3005.25
298.10	3089.51
298.47	3143.34
298.85	3981.25
299.22	11822.05
299.59	2527.78
299.97	4697.46
300.34	3875.93
300.71	9273.20
301.09	4482.13
301.46	5633.67
301.83	4830.87
302.21	3850.18
302.58	5825.59
302.95	8451.67
303.33	5977.73
303.70	4217.65
304.07	5507.28
304.45	7304.81
304.82	6939.69
305.19	4606.17
305.57	2719.70
305.94	9256.82
306.31	6448.18
306.69	4126.36
307.06	4671.71
307.43	2715.02
307.81	5373.87
308.18	5858.36
308.55	9238.09
308.92	3913.38
309.30	6057.31
309.67	5900.49
310.04	5034.49
310.42	4784.06
310.79	5834.96
311.16	3964.87
311.53	4489.15
311.91	5057.90
312.28	5004.07
312.65	3300.16
313.02	6415.41
313.40	6328.81
313.77	2644.81
314.14	7833.77
314.51	4975.98
314.89	9053.19
315.26	4971.30
315.63	3548.25
316.00	5509.62
316.37	4046.79
316.75	4287.86
317.12	3728.47
317.49	3943.80
317.86	9837.27
318.23	6562.86
318.61	5277.91
318.98	3403.14
319.35	4936.19
319.72	7709.72
320.09	6920.96
320.47	5109.39
320.84	4660.01
321.21	6064.33
321.58	4807.46
321.95	6047.94
322.32	3466.33
322.70	4468.08
323.07	5184.29
323.44	6167.31
323.81	5020.45
324.18	5636.01
324.55	9132.77
324.92	5942.62
325.30	2284.36
325.67	6579.25
326.04	5434.72
326.41	4105.30
326.78	3501.44
327.15	5703.89
327.52	10204.74
327.89	4044.45
328.27	5020.45
328.64	7852.50
329.01	4777.03
329.38	7358.64
329.75	7985.91
330.12	3206.53
330.49	4709.16
330.86	4432.97
331.23	7770.58
331.60	5516.64
331.97	6509.03
332.34	3625.49
332.71	4774.69
333.09	4079.55
333.46	4053.81
333.83	5596.22
334.20	4671.71
334.57	5476.85
334.94	4798.10
335.31	3243.98
335.68	5816.23
336.05	4514.89
336.42	3576.34
336.79	6558.18
337.16	4828.53
337.53	3672.30
337.90	2761.83
338.27	3265.05
338.64	2796.94
339.01	4800.44
339.38	4994.70
339.75	2736.09
340.12	2937.37
340.49	4018.70
340.86	8177.83
341.23	4896.40
341.60	4035.08
341.97	4760.65
342.34	2993.55
342.71	5507.28
343.08	6642.44
343.45	4353.40
343.82	5348.12
344.19	5348.12
344.55	4905.76
344.92	6815.64
345.29	4498.51
345.66	4968.96
346.03	4194.24
346.40	5657.07
346.77	2761.83
347.14	4372.12
347.51	5743.67
347.88	5453.45
348.25	5577.50
348.62	4425.95
348.99	4521.92
349.35	4332.33
349.72	4044.45
350.09	5577.50
350.46	5444.09
350.83	3087.17
351.20	5856.02
351.57	4376.80
351.94	4023.38
352.31	3566.98
352.67	5488.56
353.04	3957.85
353.41	2939.71
353.78	5404.30
354.15	6555.84
354.52	3719.11
354.89	4685.75
355.25	3143.34
355.62	4542.98
355.99	5476.85
356.36	3061.42
356.73	3953.16
357.10	3969.55
357.46	2324.15
357.83	2314.79
358.20	3253.34
358.57	7555.25
358.94	4498.51
359.30	4283.18
359.67	3419.52
360.04	2775.88
360.41	5273.23
360.78	3819.75
361.14	5849.00
361.51	5062.58
361.88	6710.32
362.25	5076.62
362.61	3812.73
362.98	4053.81
363.35	3288.45
363.72	7302.47
364.08	2731.41
364.45	5048.54
364.82	3157.38
365.19	2511.39
365.55	4397.87
365.92	4313.61
366.29	4131.05
366.66	3463.99
367.02	3789.33
367.39	2743.11
367.76	3260.37
368.13	3637.19
368.49	2682.25
368.86	2520.76
369.23	8372.10
369.59	3052.06
369.96	3779.97
370.33	3236.96
370.69	5231.10
371.06	3218.24
371.43	3035.67
371.79	3377.39
372.16	2750.13
372.53	4561.70
372.89	6537.12
373.26	5095.35
373.63	4514.89
373.99	4255.09
374.36	3660.60
374.73	5912.19
375.09	4671.71
375.46	6235.19
375.83	3826.78
376.19	4692.77
376.56	4184.88
376.93	14897.51
377.29	2736.09
377.66	6649.46
378.02	4477.44
378.39	6902.24
378.76	3295.47
379.12	3564.64
379.49	4182.54
379.85	3726.13
380.22	3861.88
380.59	7850.16
380.95	4440.00
381.32	4065.51
381.68	3288.45
382.05	5294.29
382.42	4983.00
382.78	5544.73
383.15	4042.11
383.51	3239.30
383.88	4248.07
384.24	3552.93
384.61	9479.17
384.97	2967.80
385.34	2544.16
385.70	11300.11
386.07	5504.94
386.44	2782.90
386.80	2406.07
387.17	7199.49
387.53	5153.86
387.90	4594.47
388.26	5018.11
388.63	6953.73
388.99	4306.59
389.36	3901.67
389.72	2480.97
390.09	4805.12
390.45	3339.94
390.82	5441.75
391.18	3112.91
391.55	6853.09
391.91	4081.89
392.28	4631.92
392.64	3559.95
393.00	3454.63
393.37	4175.52
393.73	5214.71
394.10	6106.46
394.46	4802.78
394.83	4599.15
395.19	5418.34
395.56	8564.02
395.92	4358.08
396.28	5612.60
396.65	7475.67
397.01	5135.14
397.38	5041.51
397.74	6345.19
398.11	5926.24
398.47	4517.23
398.83	6026.88
399.20	5631.33
399.56	5781.12
399.93	4793.42
400.29	3503.78
400.65	3412.50
401.02	7110.55
401.38	3971.89
401.74	3384.41
402.11	2909.29
402.47	9736.63
402.84	5125.77
403.20	6349.87
403.56	7042.67
403.93	4608.51
404.29	5081.30
404.65	9329.38
405.02	4187.22
405.38	5263.86
405.74	4924.49
406.11	3077.80
406.47	4477.44
406.83	2834.39
407.20	3791.67
407.56	3847.84
407.92	5345.78
408.29	3267.39
408.65	3515.48
409.01	2883.54
409.37	6441.15
409.74	3421.86
410.10	5921.56
410.46	4049.13
410.83	7805.69
411.19	4121.68
411.55	3531.87
411.91	6197.74
412.28	7831.43
412.64	8212.94
413.00	4807.46
413.36	3908.69
413.73	7999.95
414.09	4807.46
414.45	3384.41
414.81	4166.15
415.18	4774.69
415.54	3187.81
415.90	2703.32
416.26	4014.02
416.63	10162.61
416.99	4332.33
417.35	4826.18
417.71	5041.51
418.07	9034.47
418.44	9181.92
418.80	3569.32
419.16	4039.76
419.52	5240.46
419.88	6415.41
420.25	5301.31
420.61	3892.31
420.97	3534.21
421.33	4823.84
421.69	3211.22
422.05	3950.82
422.42	7449.93
422.78	4718.52
423.14	7562.27
423.50	4248.07
423.86	3066.10
424.22	4627.24
424.58	3377.39
424.95	4903.42
425.31	6022.20
425.67	5179.61
426.03	2719.70
426.39	5827.93
426.75	2684.59
427.11	5694.52
427.47	4798.10
427.83	3194.83
428.20	5481.53
428.56	5151.52
428.92	3896.99
429.28	7349.28
429.64	7758.88
430.00	4725.54
430.36	7307.15
430.72	3791.67
431.08	3896.99
431.44	2750.13
431.80	2813.32
432.16	2546.50
432.52	3330.58
432.88	6368.60
433.25	10916.26
433.61	6033.90
433.97	3274.41
434.33	4774.69
434.69	8449.33
435.05	3265.05
435.41	5982.41
435.77	3180.79
436.13	2120.53
436.49	2911.63
436.85	4451.70
437.21	5586.86
437.57	3768.26
437.93	3133.98
438.29	3543.57
438.65	4526.60
439.01	6113.48
439.37	4697.46
439.73	4397.87
440.09	3831.46
440.45	5416.00
440.81	3899.33
441.17	5041.51
441.53	6200.08
441.88	3794.01
442.24	2904.60
442.60	2970.14
442.96	4383.82
443.32	3459.31
443.68	4809.80
444.04	3892.31
444.40	4716.18
444.76	6392.00
445.12	7866.54
445.48	5949.64
445.84	6279.66
446.20	4121.68
446.55	2684.59
446.91	5905.17
447.27	5720.27
447.63	5444.09
447.99	4957.25
448.35	3012.27
448.71	2600.34
449.07	3765.92
449.43	2825.03
449.78	2757.15
450.14	5497.92
450.50	8362.73
450.86	4315.95
451.22	5369.19
451.58	4695.11
451.94	2785.24
452.29	7201.83
452.65	4980.66
453.01	7243.96
453.37	3098.87
453.73	2452.88
454.09	3194.83
454.44	3166.74
454.80	2803.96
455.16	4084.23
455.52	4917.47
455.88	5762.40
456.23	2799.28
456.59	4781.71
456.95	4695.11
457.31	4528.94
457.67	3300.16
458.02	5228.76
458.38	2637.78
458.74	7461.63
459.10	3112.91
459.45	4421.27
459.81	3456.97
460.17	31124.44
460.53	2984.18
460.88	4234.03
461.24	5191.31
461.60	4828.53
461.96	3882.95
462.31	6356.90
462.67	3566.98
463.03	6410.73
463.39	4449.36
463.74	4351.06
464.10	2583.95
464.46	3471.01
464.81	3119.93
465.17	6855.43
465.53	4571.07
465.88	2913.97
466.24	2869.50
466.60	5284.93
466.95	4107.64
467.31	3803.37
467.67	2890.56
468.03	9104.68
468.38	5830.27
468.74	5659.42
469.09	3609.11
469.45	5734.31
469.81	4940.87
470.16	5266.21
470.52	6197.74
470.88	5961.34
471.23	4592.13
471.59	3442.93
471.95	8065.49
472.30	4709.16
472.66	7290.77
473.01	8678.71
473.37	7618.44
473.73	4194.24
474.08	3564.64
474.44	4238.71
474.79	3957.85
475.15	4273.82
475.51	2579.27
475.86	2745.45
476.22	6176.67
476.57	5977.73
476.93	3007.59
477.29	4334.67
477.64	4624.90
478.00	6759.47
478.35	2731.41
478.71	4168.49
479.06	3602.08
479.42	6312.42
479.77	7864.20
480.13	3035.67
480.48	4912.78
480.84	3861.88
481.19	5762.40
481.55	5128.11
481.91	5526.00
482.26	4390.84
482.62	3751.88
482.97	4294.88
483.33	3843.16
483.68	4971.30
484.04	7070.76
484.39	4929.17
484.74	3768.26
485.10	3478.04
485.45	6345.19
485.81	8503.17
486.16	7510.78
486.52	4369.78
486.87	4784.06
487.23	4519.57
487.58	5406.64
487.94	3639.53
488.29	7510.78
488.65	5956.66
489.00	9387.89
489.35	5558.77
489.71	7850.16
490.06	7339.92
490.42	6359.24
490.77	7040.33
491.12	8109.96
491.48	9696.84
491.83	9858.34
492.19	7609.08
492.54	7365.67
492.89	8678.71
493.25	8276.13
493.60	10663.48
493.96	10946.69
494.31	15337.53
494.66	14995.81
495.02	15105.82
495.37	14319.40
495.72	15714.36
496.08	18115.75
496.43	15700.31
496.79	19737.74
497.14	16189.49
497.49	16884.62
497.85	18394.27
498.20	17832.54
498.55	20198.82
498.91	20077.12
499.26	21242.70
499.61	23417.06
499.96	21078.86
500.32	22733.62
500.67	24524.13
501.02	19541.13
501.38	18909.19
501.73	29322.23
502.08	21090.57
502.44	20727.78
502.79	20531.18
503.14	20245.63
503.49	19089.41
503.85	21668.68
504.20	18902.17
504.55	19932.00
504.90	27707.26
505.26	22525.32
505.61	20393.09
505.96	20702.04
506.31	20655.23
506.67	23506.00
507.02	19674.54
507.37	19000.47
507.72	21376.11
508.08	28910.30
508.43	20580.33
508.78	20397.77
509.13	25853.56
509.48	20840.13
509.84	21743.58
510.19	22504.25
510.54	21738.90
510.89	21355.05
511.24	19894.55
511.59	25268.42
511.95	22614.26
512.30	20446.92
512.65	24224.54
513.00	20144.99
513.35	22387.22
513.70	22462.12
514.06	24435.19
514.41	21947.20
514.76	20912.69
515.11	20552.24
515.46	19143.24
515.81	21970.61
516.16	23936.66
516.52	24063.05
516.87	19468.58
517.22	19040.26
517.57	23868.78
517.92	21865.28
518.27	19550.49
518.62	24163.69
518.97	20568.63
519.32	20563.95
519.67	21750.60
520.03	19826.68
520.38	22038.48
520.73	20554.58
521.08	22443.40
521.43	23115.13
521.78	22981.72
522.13	19836.04
522.48	20655.23
522.83	20910.35
523.18	19293.04
523.53	21832.52
523.88	19082.39
524.23	22981.72
524.58	19159.63
524.93	20484.37
525.28	23117.47
525.63	20849.49
525.98	24474.98
526.33	24278.38
526.68	20299.47
527.03	22349.78
527.38	20058.39
527.73	17614.87
528.08	19995.20
528.43	19435.81
528.78	19063.66
529.13	19857.10
529.48	20973.54
529.83	19248.57
530.18	17696.79
530.53	20353.30
530.88	19435.81
531.23	17944.89
531.58	19192.39
531.93	20650.55
532.28	20276.06
532.63	22663.41
532.98	16472.69
533.33	21214.62
533.68	16774.62
534.02	16821.43
534.37	16755.90
534.72	16170.76
535.07	19878.17
535.42	17902.76
535.77	16931.44
536.12	16758.24
536.47	16739.51
536.82	18806.20
537.17	19594.96
537.51	16093.52
537.86	15564.56
538.21	15665.21
538.56	21088.23
538.91	15751.81
539.26	15220.50
539.61	19089.41
539.95	20037.33
540.30	14803.89
540.65	16456.31
541.00	15300.08
541.35	20119.24
541.70	19737.74
542.04	16793.34
542.39	19658.16
542.74	15566.90
543.09	14588.56
543.44	17317.62
543.78	15496.69
544.13	15131.56
544.48	18724.29
544.83	16240.98
545.18	14602.60
545.52	17610.19
545.87	17195.92
546.22	13635.96
546.57	14925.60
546.91	14148.54
547.26	14483.24
547.61	16776.96
547.96	16498.44
548.30	13790.44
548.65	15939.05
549.00	14927.94
549.35	15096.46
549.69	15204.12
550.04	14857.72
550.39	13219.35
550.74	13310.63
551.08	16940.80
551.43	15796.28
551.78	13432.33
552.12	16484.39
552.47	15962.45
552.82	16243.32
553.17	14611.96
553.51	14450.47
553.86	16788.66
554.21	14649.41
554.55	14190.67
554.90	15115.18
555.25	15461.58
555.59	16566.31
555.94	12912.74
556.29	13905.12
556.63	12355.69
556.98	16198.85
557.32	15470.94
557.67	12439.95
558.02	12362.71
558.36	15405.41
558.71	11538.84
559.06	13488.51
559.40	12952.52
559.75	11068.39
560.09	12397.82
560.44	12241.00
560.79	12325.26
561.13	12142.70
561.48	13186.58
561.82	13577.45
562.17	10991.16
562.52	12011.63
562.86	12526.55
563.21	13160.83
563.55	11583.31
563.90	12585.06
564.24	13179.56
564.59	12283.13
564.94	14054.92
565.28	14125.13
565.63	13532.98
565.97	11552.88
566.32	13687.45
566.66	14572.18
567.01	10663.48
567.35	12905.71
567.70	12774.64
568.04	10682.20
568.39	10314.74
568.73	13813.84
569.08	12168.45
569.42	11311.81
569.77	12533.57
570.11	14038.53
570.46	11845.45
570.80	11124.57
571.15	15559.88
571.49	10583.90
571.84	10693.91
572.18	16339.28
572.52	15824.36
572.87	9507.26
573.21	12659.96
573.56	10733.70
573.90	10221.12
574.25	12173.13
574.59	9252.14
574.94	15997.56
575.28	13610.22
575.62	10696.25
575.97	9458.10
576.31	10125.16
576.66	9930.89
577.00	10209.42
577.34	10824.98
577.69	9008.72
578.03	12446.97
578.38	9804.50
578.72	10253.89
579.06	11204.14
579.41	10139.20
579.75	10534.75
580.09	13598.51
580.44	11262.66
580.78	11707.36
581.12	8748.92
581.47	9350.44
581.81	8704.45
582.16	8170.81
582.50	11068.39
582.84	9011.06
583.19	10530.07
583.53	14036.19
583.87	10118.14
584.21	9626.62
584.56	7845.48
584.90	8847.22
585.24	12009.29
585.59	8657.64
585.93	10190.69
586.27	12655.28
586.62	7648.87
586.96	11400.75
587.30	14579.20
587.64	7463.97
587.99	9352.78
588.33	8643.60
588.67	12018.65
589.01	10061.96
589.36	8716.16
589.70	12784.01
590.04	8074.85
590.38	7609.08
590.73	9940.26
591.07	7302.47
591.41	8184.85
591.75	11517.78
592.09	9043.83
592.44	9109.36
592.78	9156.18
593.12	12203.55
593.46	9954.30
593.80	7817.39
594.15	6995.86
594.49	9994.09
594.83	12847.20
595.17	8498.49
595.51	6750.10
595.85	11213.51
596.20	8098.25
596.54	7232.26
596.88	6366.26
597.22	6843.73
597.56	12489.10
597.90	7169.06
598.25	10321.76
598.59	6878.83
598.93	8671.68
599.27	8821.48
599.61	11616.08
599.95	8994.68
600.29	11122.23
600.63	10078.35
600.97	7178.42
601.32	8491.46
601.66	6949.05
602.00	6314.77
602.34	7009.90
602.68	10314.74
603.02	8124.00
603.36	7419.50
603.70	5919.21
604.04	8823.82
604.38	6909.26
604.72	13350.42
605.06	8587.43
605.40	9558.75
605.74	9502.58
606.08	8381.46
606.43	7124.59
606.77	7793.98
607.11	8730.20
607.45	6499.67
607.79	8617.85
608.13	7597.38
608.47	8559.34
608.81	7723.77
609.15	7543.55
609.49	9156.18
609.83	11082.44
610.17	9916.85
610.51	7950.80
