SpectraSuite Data File
++++++++++++++++++++++++++++++++++++
Date: Tue Jun 09 14:27:35 CEST 2015
User: jiasu
Dark Spectrum Present: No
Reference Spectrum Present: No
Number of Sampled Component Spectra: 1
Spectrometers: USB2+F02403
Integration Time (usec): 30000000 (USB2+F02403)
Spectra Averaged: 1 (USB2+F02403)
Boxcar Smoothing: 0 (USB2+F02403)
Correct for Electrical Dark: No (USB2+F02403)
Strobe/Lamp Enabled: No (USB2+F02403)
Correct for Detector Non-linearity: No (USB2+F02403)
Correct for Stray Light: No (USB2+F02403)
Number of Pixels in Processed Spectrum: 2048
>>>>>Begin Processed Spectral Data<<<<<
177.51	610.88
177.90	610.88
178.28	610.88
178.67	528.96
179.05	479.81
179.44	9298.95
179.82	3569.32
180.20	15845.43
180.59	4805.12
180.97	4809.80
181.36	6916.28
181.74	6675.21
182.12	4552.34
182.51	6904.58
182.89	5633.67
183.28	6658.82
183.66	5195.99
184.04	6944.37
184.43	4929.17
184.81	4234.03
185.19	4437.66
185.58	8325.29
185.96	8105.28
186.35	3410.16
186.73	7005.22
187.11	9591.52
187.50	8592.11
187.88	6408.39
188.26	6370.94
188.65	5294.29
189.03	3625.49
189.41	4315.95
189.80	13085.94
190.18	5308.34
190.56	5907.51
190.95	6073.69
191.33	6111.14
191.71	7616.10
192.10	6597.97
192.48	7061.40
192.86	3929.76
193.25	10562.84
193.63	3190.15
194.01	7513.12
194.40	4276.16
194.78	7962.50
195.16	3417.18
195.54	7274.38
195.93	3468.67
196.31	5486.22
196.69	4016.36
197.08	6293.70
197.46	5954.32
197.84	4823.84
198.22	11066.05
198.61	4004.66
198.99	7798.66
199.37	3293.13
199.75	4252.75
200.14	5280.25
200.52	6314.77
200.90	4542.98
201.28	4447.02
201.67	8601.47
202.05	5088.32
202.43	6925.65
202.81	5287.27
203.20	2506.71
203.58	6733.72
203.96	5392.59
204.34	8131.02
204.72	5579.84
205.11	4772.35
205.49	6111.14
205.87	6654.14
206.25	6576.91
206.63	4337.01
207.02	4091.26
207.40	5664.10
207.78	4938.53
208.16	6604.99
208.54	4767.67
208.93	3379.73
209.31	10277.29
209.69	5614.95
210.07	3066.10
210.45	4889.38
210.83	6574.56
211.22	5097.69
211.60	5493.24
211.98	3077.80
212.36	3185.47
212.74	3988.27
213.12	3754.22
213.50	3452.29
213.89	4723.20
214.27	7496.74
214.65	6342.85
215.03	6993.52
215.41	5776.44
215.79	3749.54
216.17	2389.69
216.55	6668.19
216.94	6977.14
217.32	4152.11
217.70	5628.99
218.08	4023.38
218.46	3693.37
218.84	3040.36
219.22	6977.14
219.60	3627.83
219.98	10155.58
220.36	6015.18
220.74	5806.87
221.12	7431.20
221.51	3623.15
221.89	3850.18
222.27	7829.09
222.65	4411.91
223.03	4393.19
223.41	2490.33
223.79	6307.74
224.17	5366.85
224.55	4402.55
224.93	4297.22
225.31	6164.97
225.69	4791.08
226.07	4990.02
226.45	3279.09
226.83	6497.33
227.21	2448.20
227.59	5139.82
227.97	5872.40
228.35	5671.12
228.73	8514.87
229.11	4552.34
229.49	8681.05
229.87	2885.88
230.25	5135.14
230.63	4180.20
231.01	3400.80
231.39	7700.36
231.77	4697.46
232.15	3574.00
232.53	6324.13
232.91	8947.87
233.29	6249.23
233.67	4858.95
234.05	4088.92
234.43	8198.90
234.81	8109.96
235.19	2670.55
235.57	4077.21
235.95	9139.79
236.33	4978.32
236.71	4580.43
237.09	4526.60
237.47	3562.30
237.84	6291.36
238.22	9738.97
238.60	4664.69
238.98	5741.33
239.36	4344.03
239.74	6342.85
240.12	5062.58
240.50	4449.36
240.88	9944.94
241.26	6071.35
241.64	5158.54
242.01	6581.59
242.39	6427.11
242.77	3159.72
243.15	3124.62
243.53	3449.95
243.91	2682.25
244.29	4278.50
244.67	3220.58
245.04	4980.66
245.42	4329.99
245.80	4636.60
246.18	4547.66
246.56	3061.42
246.94	4500.85
247.32	5818.57
247.69	4894.06
248.07	6860.11
248.45	6036.24
248.83	3225.26
249.21	3281.43
249.59	5905.17
249.96	9121.07
250.34	4301.90
250.72	9975.36
251.10	7030.97
251.48	3702.73
251.86	5523.66
252.23	4098.28
252.61	5069.60
252.99	6422.43
253.37	3229.94
253.74	3531.87
254.12	4334.67
254.50	5710.91
254.88	5259.18
255.26	6277.32
255.63	4107.64
256.01	10581.56
256.39	3873.59
256.77	3948.48
257.14	5790.49
257.52	7037.99
257.90	2942.05
258.28	4348.72
258.65	2902.26
259.03	3162.06
259.41	2906.95
259.79	3688.68
260.16	4271.48
260.54	5671.12
260.92	4376.80
261.30	7573.97
261.67	3279.09
262.05	9626.62
262.43	4049.13
262.80	4983.00
263.18	5193.65
263.56	5544.73
263.94	3794.01
264.31	5287.27
264.69	5846.66
265.07	5233.44
265.44	3171.43
265.82	6190.72
266.20	3136.32
266.57	6445.84
266.95	5607.92
267.33	5713.25
267.70	11473.31
268.08	7382.05
268.46	6036.24
268.83	4873.00
269.21	4882.36
269.59	4411.91
269.96	6387.32
270.34	6848.41
270.71	10366.23
271.09	4039.76
271.47	4301.90
271.84	4641.28
272.22	7620.78
272.60	6150.93
272.97	3056.74
273.35	2848.43
273.72	9628.96
274.10	3927.42
274.48	6179.01
274.85	4386.16
275.23	5994.11
275.60	4732.56
275.98	3875.93
276.36	4992.36
276.73	4849.59
277.11	6686.91
277.48	4987.68
277.86	3435.91
278.24	3173.77
278.61	3094.19
278.99	3133.98
279.36	7122.25
279.74	7805.69
280.11	3407.82
280.49	6672.87
280.86	6366.26
281.24	3581.02
281.61	4917.47
281.99	10256.23
282.37	7749.51
282.74	5504.94
283.12	4198.92
283.49	3833.80
283.87	10434.11
284.24	4987.68
284.62	5226.42
284.99	4730.22
285.37	5132.79
285.74	5345.78
286.12	3934.44
286.49	2722.04
286.87	2455.22
287.24	5207.69
287.62	3803.37
287.99	7763.56
288.37	7302.47
288.74	5570.48
289.12	6768.83
289.49	4421.27
289.86	5579.84
290.24	4493.83
290.61	4964.28
290.99	4561.70
291.36	2848.43
291.74	7941.44
292.11	3353.99
292.49	3213.56
292.86	6188.38
293.23	4140.41
293.61	4379.14
293.98	5912.19
294.36	4992.36
294.73	3824.44
295.11	2750.13
295.48	4063.17
295.85	6911.60
296.23	5247.48
296.60	4035.08
296.98	3300.16
297.35	4318.29
297.72	3206.53
298.10	3162.06
298.47	3164.40
298.85	4046.79
299.22	12318.24
299.59	2614.38
299.97	4760.65
300.34	3967.21
300.71	9694.50
301.09	4650.64
301.46	5650.05
301.83	4905.76
302.21	3901.67
302.58	6108.80
302.95	8683.39
303.33	6054.97
303.70	4458.72
304.07	5710.91
304.45	7538.87
304.82	7131.61
305.19	4816.82
305.57	2750.13
305.94	9591.52
306.31	6684.57
306.69	4280.84
307.06	4844.91
307.43	2722.04
307.81	5556.43
308.18	6029.22
308.55	9345.76
308.92	4065.51
309.30	6300.72
309.67	5902.83
310.04	5188.97
310.42	4945.55
310.79	5968.37
311.16	4168.49
311.53	4542.98
311.91	5270.89
312.28	5046.20
312.65	3229.94
313.02	6298.38
313.40	6455.20
313.77	2789.92
314.14	8196.56
314.51	5125.77
314.89	9305.97
315.26	4922.15
315.63	3688.68
316.00	5518.98
316.37	4102.96
316.75	4514.89
317.12	3777.62
317.49	4063.17
317.86	9984.73
318.23	6546.48
318.61	5427.70
318.98	3255.69
319.35	5144.50
319.72	7908.67
320.09	7131.61
320.47	5373.87
320.84	4683.41
321.21	6139.23
321.58	4985.34
321.95	6216.46
322.32	3510.80
322.70	4552.34
323.07	5516.64
323.44	6148.59
323.81	4990.02
324.18	6040.92
324.55	9586.83
324.92	6057.31
325.30	2490.33
325.67	6890.54
326.04	5612.60
326.41	4271.48
326.78	3461.65
327.15	5900.49
327.52	10424.75
327.89	4187.22
328.27	5284.93
328.64	7988.25
329.01	4961.94
329.38	7630.15
329.75	8006.97
330.12	3281.43
330.49	4898.74
330.86	4678.73
331.23	8168.47
331.60	5703.89
331.97	6649.46
332.34	3812.73
332.71	5039.17
333.09	4121.68
333.46	4032.74
333.83	5888.79
334.20	4622.56
334.57	5636.01
334.94	4854.27
335.31	3375.05
335.68	5998.79
336.05	4568.73
336.42	3494.42
336.79	6731.38
337.16	4943.21
337.53	3885.29
337.90	2853.11
338.27	3353.99
338.64	2972.48
339.01	4837.89
339.38	5118.75
339.75	2733.75
340.12	2972.48
340.49	4138.07
340.86	8442.31
341.23	4856.61
341.60	4222.33
341.97	4793.42
342.34	3199.51
342.71	5661.76
343.08	6733.72
343.45	4369.78
343.82	5577.50
344.19	5497.92
344.55	4849.59
344.92	7089.48
345.29	4535.96
345.66	5008.75
346.03	4255.09
346.40	5586.86
346.77	2949.08
347.14	4629.58
347.51	5982.41
347.88	5757.72
348.25	5671.12
348.62	4535.96
348.99	4610.86
349.35	4358.08
349.72	4135.73
350.09	5722.61
350.46	5621.97
350.83	3218.24
351.20	6026.88
351.57	4493.83
351.94	4147.43
352.31	3517.83
352.67	5701.54
353.04	4002.32
353.41	2937.37
353.78	5427.70
354.15	6806.28
354.52	3798.69
354.89	4608.51
355.25	3288.45
355.62	4669.37
355.99	5685.16
356.36	3059.08
356.73	4014.02
357.10	3950.82
357.46	2457.56
357.83	2270.32
358.20	3435.91
358.57	7796.32
358.94	4648.30
359.30	4444.68
359.67	3405.48
360.04	2764.17
360.41	5526.00
360.78	3805.71
361.14	5804.53
361.51	5104.71
361.88	6750.10
362.25	5233.44
362.61	3838.48
362.98	4346.37
363.35	3335.26
363.72	7669.94
364.08	2733.75
364.45	5249.82
364.82	3239.30
365.19	2546.50
365.55	4521.92
365.92	4554.68
366.29	4381.48
366.66	3503.78
367.02	3850.18
367.39	2705.66
367.76	3328.24
368.13	3693.37
368.49	2691.62
368.86	2443.52
369.23	8777.01
369.59	3030.99
369.96	3868.91
370.33	3225.26
370.69	5261.52
371.06	3297.81
371.43	3026.31
371.79	3517.83
372.16	2778.22
372.53	4791.08
372.89	6848.41
373.26	5149.18
373.63	4753.63
373.99	4292.54
374.36	3758.90
374.73	5902.83
375.09	4833.21
375.46	6296.04
375.83	4093.60
376.19	4816.82
376.56	4383.82
376.93	15573.92
377.29	2682.25
377.66	7148.00
378.02	4645.96
378.39	7241.62
378.76	3536.55
379.12	3571.66
379.49	4386.16
379.85	3871.25
380.22	3896.99
380.59	8201.24
380.95	4571.07
381.32	4039.76
381.68	3300.16
382.05	5423.02
382.42	5135.14
382.78	5804.53
383.15	4149.77
383.51	3290.79
383.88	4362.76
384.24	3604.42
384.61	9816.21
384.97	3023.97
385.34	2581.61
385.70	11985.88
386.07	5661.76
386.44	2885.88
386.80	2441.18
387.17	7449.93
387.53	5296.63
387.90	4823.84
388.26	5125.77
388.63	7187.79
388.99	4550.00
389.36	4086.58
389.72	2595.65
390.09	4961.94
390.45	3384.41
390.82	5460.47
391.18	3084.83
391.55	7225.23
391.91	4140.41
392.28	4889.38
392.64	3777.62
393.00	3487.40
393.37	4198.92
393.73	5289.61
394.10	6272.64
394.46	5165.56
394.83	4819.16
395.19	5530.69
395.56	8999.36
395.92	4430.63
396.28	5685.16
396.65	7786.96
397.01	5303.65
397.38	5310.68
397.74	6604.99
398.11	6010.50
398.47	4599.15
398.83	6104.12
399.20	5706.23
399.56	5795.17
399.93	4945.55
400.29	3651.24
400.65	3492.08
401.02	7382.05
401.38	3948.48
401.74	3410.16
402.11	2932.69
402.47	10153.24
402.84	5114.07
403.20	6562.86
403.56	7243.96
403.93	4917.47
404.29	5249.82
404.65	9717.90
405.02	4344.03
405.38	5483.88
405.74	4992.36
406.11	3307.18
406.47	4442.34
406.83	2916.31
407.20	3889.97
407.56	4056.15
407.92	5537.71
408.29	3176.11
408.65	3536.55
409.01	2785.24
409.37	6796.92
409.74	3529.53
410.10	6225.82
410.46	4081.89
410.83	8322.94
411.19	4173.18
411.55	3630.17
411.91	6129.86
412.28	8084.21
412.64	8486.78
413.00	4985.34
413.36	3988.27
413.73	8266.77
414.09	4975.98
414.45	3461.65
414.81	4159.13
415.18	4940.87
415.54	3091.85
415.90	2705.66
416.26	3992.95
416.63	10391.98
416.99	4524.26
417.35	4882.36
417.71	5275.57
418.07	9518.96
418.44	9483.85
418.80	3644.21
419.16	4234.03
419.52	5394.93
419.88	6586.27
420.25	5462.81
420.61	4030.40
420.97	3735.50
421.33	4961.94
421.69	3304.84
422.05	4156.79
422.42	7620.78
422.78	4905.76
423.14	6731.38
423.50	4159.13
423.86	3164.40
424.22	4650.64
424.58	3440.59
424.95	5097.69
425.31	6197.74
425.67	5242.80
426.03	2698.64
426.39	6047.94
426.75	2649.49
427.11	5959.00
427.47	4877.68
427.83	3229.94
428.20	5626.65
428.56	5446.43
428.92	4030.40
429.28	7581.00
429.64	8348.69
430.00	4915.12
430.36	7370.35
430.72	3857.20
431.08	4107.64
431.44	2780.56
431.80	2885.88
432.16	2710.34
432.52	3562.30
432.88	6555.84
433.25	11377.34
433.61	6204.76
433.97	3183.13
434.33	4826.18
434.69	8667.00
435.05	3316.54
435.41	6120.50
435.77	3435.91
436.13	2143.93
436.49	2902.26
436.85	4568.73
437.21	5991.77
437.57	3798.69
437.93	3117.59
438.29	3552.93
438.65	4795.76
439.01	6300.72
439.37	4669.37
439.73	4432.97
440.09	4065.51
440.45	5481.53
440.81	3934.44
441.17	5334.08
441.53	6340.51
441.88	3815.07
442.24	3054.40
442.60	3061.42
442.96	4741.93
443.32	3475.70
443.68	4987.68
444.04	3990.61
444.40	4917.47
444.76	6626.06
445.12	7955.48
445.48	6059.65
445.84	6289.02
446.20	4149.77
446.55	2675.23
446.91	6162.63
447.27	5818.57
447.63	5500.26
447.99	5137.48
448.35	3063.76
448.71	2668.21
449.07	3913.38
449.43	2834.39
449.78	2832.05
450.14	5591.54
450.50	8407.20
450.86	4428.29
451.22	5476.85
451.58	4837.89
451.94	2963.12
452.29	7442.90
452.65	5275.57
453.01	7438.22
453.37	3089.51
453.73	2551.18
454.09	3178.45
454.44	3180.79
454.80	2895.24
455.16	4168.49
455.52	5100.03
455.88	5844.32
456.23	2787.58
456.59	4940.87
456.95	4966.62
457.31	4564.04
457.67	3410.16
458.02	5263.86
458.38	2715.02
458.74	7775.26
459.10	3178.45
459.45	4557.02
459.81	3358.67
460.17	31974.06
460.53	3080.14
460.88	4166.15
461.24	5289.61
461.60	4987.68
461.96	4077.21
462.31	6574.56
462.67	3688.68
463.03	6567.54
463.39	4510.21
463.74	4236.37
464.10	2609.70
464.46	3522.51
464.81	3126.96
465.17	6843.73
465.53	4482.13
465.88	2972.48
466.24	2967.80
466.60	5568.13
466.95	4259.78
467.31	3955.51
467.67	2944.39
468.03	9273.20
468.38	6038.58
468.74	5734.31
469.09	3726.13
469.45	5902.83
469.81	4936.19
470.16	5376.21
470.52	6349.87
470.88	6099.44
471.23	4702.14
471.59	3492.08
471.95	8306.56
472.30	4770.01
472.66	7316.51
473.01	9205.33
473.37	7964.84
473.73	4308.93
474.08	3585.70
474.44	4308.93
474.79	3939.12
475.15	4231.69
475.51	2705.66
475.86	2775.88
476.22	6340.51
476.57	6251.57
476.93	3016.95
477.29	4383.82
477.64	4676.39
478.00	7061.40
478.35	2682.25
478.71	4301.90
479.06	3712.09
479.42	6534.78
479.77	7995.27
480.13	3016.95
480.48	4957.25
480.84	3864.22
481.19	5907.51
481.55	5296.63
481.91	5582.18
482.26	4456.38
482.62	3733.15
482.97	4306.59
483.33	3845.50
483.68	5043.85
484.04	7400.77
484.39	5116.41
484.74	3700.39
485.10	3417.18
485.45	6314.77
485.81	8765.31
486.16	7552.91
486.52	4498.51
486.87	4746.61
487.23	4540.64
487.58	5563.45
487.94	3447.61
488.29	7503.76
488.65	5757.72
489.00	9364.48
489.35	5434.72
489.71	7597.38
490.06	7108.21
490.42	6237.53
490.77	6977.14
491.12	7775.26
491.48	9076.60
491.83	9174.90
492.19	6963.09
492.54	6399.02
492.89	7634.83
493.25	7094.16
493.60	9406.61
493.96	9455.76
494.31	13949.59
494.66	13462.76
495.02	13762.35
495.37	12702.09
495.72	13659.37
496.08	16266.72
496.43	13937.89
496.79	18064.25
497.14	14459.83
497.49	15049.64
497.85	16388.43
498.20	15817.34
498.55	17673.39
498.91	17944.89
499.26	19784.55
499.61	21795.07
499.96	18883.44
500.32	21441.65
500.67	23307.05
501.02	17930.84
501.38	17090.59
501.73	27508.32
502.08	19131.54
502.44	19531.77
502.79	19475.60
503.14	18719.60
503.49	17425.29
503.85	20542.88
504.20	17729.56
504.55	18560.45
504.90	26642.32
505.26	21156.10
505.61	19164.31
505.96	19749.44
506.31	19288.35
506.67	22047.85
507.02	18588.53
507.37	17703.81
507.72	20421.17
508.08	27590.24
508.43	19503.68
508.78	18993.45
509.13	25160.76
509.48	19960.09
509.84	20479.69
510.19	21427.60
510.54	20744.17
510.89	20563.95
511.24	19152.60
511.59	24959.47
511.95	22267.86
512.30	19653.48
512.65	23424.08
513.00	19496.66
513.35	21359.73
513.70	21240.36
514.06	24325.19
514.41	21678.04
514.76	20353.30
515.11	19903.92
515.46	18569.81
515.81	21596.12
516.16	24004.53
516.52	23871.12
516.87	18869.40
517.22	18754.71
517.57	23557.49
517.92	21376.11
518.27	19393.68
518.62	23756.44
518.97	20402.45
519.32	20128.61
519.67	22040.82
520.03	19496.66
520.38	21846.56
520.73	20554.58
521.08	22349.78
521.43	23365.57
521.78	23014.49
522.13	19499.00
522.48	20542.88
522.83	20870.56
523.18	19515.39
523.53	22199.98
523.88	19239.20
524.23	23410.04
524.58	19304.74
524.93	20535.86
525.28	23690.90
525.63	21020.35
525.98	24575.62
526.33	24465.62
526.68	21188.87
527.03	21387.82
527.38	20299.47
527.73	18092.34
528.08	20397.77
528.43	19726.04
528.78	19861.79
529.13	20547.56
529.48	21322.28
529.83	19201.76
530.18	18040.85
530.53	20835.45
530.88	20067.75
531.23	17965.95
531.58	19442.83
531.93	21130.36
532.28	20596.71
532.63	23300.03
532.98	16709.08
533.33	21834.86
533.68	17252.09
534.02	17312.94
534.37	16943.14
534.72	16692.70
535.07	20442.24
535.42	18647.05
535.77	17556.36
536.12	17116.34
536.47	17284.86
536.82	19365.59
537.17	20184.78
537.51	16556.95
537.86	15676.91
538.21	16746.53
538.56	21771.66
538.91	16088.84
539.26	15545.84
539.61	19735.40
539.95	21006.31
540.30	15414.77
540.65	17032.08
541.00	15925.00
541.35	20961.84
541.70	20278.40
542.04	17387.84
542.39	20437.56
542.74	16107.57
543.09	15286.04
543.44	17907.44
543.78	16238.64
544.13	16025.65
544.48	19618.37
544.83	16734.83
545.18	15115.18
545.52	18319.37
545.87	17942.55
546.22	14539.41
546.57	15480.30
546.91	14888.15
547.26	14904.53
547.61	17441.67
547.96	17591.47
548.30	14274.93
548.65	16613.12
549.00	15431.15
549.35	15906.28
549.69	15955.43
550.04	15229.87
550.39	13703.84
550.74	13675.75
551.08	17902.76
551.43	16446.94
551.78	13635.96
552.12	17074.21
552.47	16578.01
552.82	16510.14
553.17	15370.30
553.51	15049.64
553.86	17474.44
554.21	14995.81
554.55	14738.35
554.90	15655.84
555.25	16079.48
555.59	17479.12
555.94	13357.44
556.29	14176.62
556.63	12727.83
556.98	16783.98
557.32	16264.38
557.67	13324.67
558.02	12695.07
558.36	16503.12
558.71	11758.85
559.06	14043.21
559.40	13659.37
559.75	11304.79
560.09	12809.75
560.44	12559.31
560.79	12835.50
561.13	12496.12
561.48	13640.64
561.82	14024.49
562.17	11349.26
562.52	12402.50
562.86	13163.17
563.21	13542.34
563.55	11983.54
563.90	13029.76
564.24	13820.86
564.59	12849.54
564.94	14576.86
565.28	14574.52
565.63	13846.61
565.97	11962.48
566.32	14288.97
566.66	15117.52
567.01	11101.16
567.35	13186.58
567.70	13083.59
568.04	10972.43
568.39	10640.08
568.73	14232.80
569.08	12421.22
569.42	11826.73
569.77	12800.39
570.11	14752.40
570.46	12098.23
570.80	11375.00
571.15	16051.39
571.49	10846.04
571.84	10839.02
572.18	16503.12
572.52	16315.87
572.87	9916.85
573.21	12879.97
573.56	11061.37
573.90	10462.19
574.25	12229.30
574.59	9451.08
574.94	16444.60
575.28	13944.91
575.62	10782.85
575.97	9568.11
576.31	10232.82
576.66	10406.02
577.00	10235.16
577.34	11152.65
577.69	9261.50
578.03	12861.24
578.38	9905.15
578.72	10597.95
579.06	11426.50
579.41	10319.42
579.75	10682.20
580.09	13989.38
580.44	11861.84
580.78	11899.28
581.12	9053.19
581.47	9680.46
581.81	8559.34
582.16	8461.04
582.50	11265.00
582.84	9151.49
583.19	10806.25
583.53	13921.51
583.87	10125.16
584.21	9949.62
584.56	7843.14
584.90	8720.84
585.24	12248.02
585.59	8744.24
585.93	10228.14
586.27	13046.15
586.62	7737.81
586.96	11543.52
587.30	15096.46
587.64	7461.63
587.99	9146.81
588.33	8650.62
588.67	11936.73
589.01	10265.59
589.36	8594.45
589.70	13069.55
590.04	8095.91
590.38	7691.00
590.73	10326.44
591.07	7468.65
591.41	8182.51
591.75	11751.83
592.09	9043.83
592.44	9291.93
592.78	8872.97
593.12	12624.85
593.46	10221.12
593.80	7915.69
594.15	6881.18
594.49	10076.01
594.83	12894.01
595.17	8465.72
595.51	6633.08
595.85	11318.83
596.20	8021.02
596.54	7143.32
596.88	6377.96
597.22	6759.47
597.56	12968.91
597.90	7105.87
598.25	10394.32
598.59	6972.46
598.93	8781.69
599.27	8751.26
599.61	11957.80
599.95	8898.72
600.29	11248.61
600.63	10349.85
600.97	7087.14
601.32	8816.80
601.66	6869.47
602.00	6319.45
602.34	6897.56
602.68	10164.95
603.02	8180.17
603.36	7449.93
603.70	5926.24
604.04	8603.81
604.38	7023.95
604.72	13621.92
605.06	8662.32
605.40	9607.90
605.74	9516.62
606.08	8404.86
606.43	7028.63
606.77	7983.57
607.11	8643.60
607.45	6518.39
607.79	8681.05
608.13	7674.62
608.47	8505.51
608.81	7805.69
609.15	7875.90
609.49	9125.75
609.83	10963.07
610.17	9989.41
