SpectraSuite Data File
++++++++++++++++++++++++++++++++++++
Date: Fri Jun 05 13:24:15 CEST 2015
User: jiasu
Dark Spectrum Present: No
Reference Spectrum Present: No
Number of Sampled Component Spectra: 1
Spectrometers: USB2+F02403
Integration Time (usec): 10000000 (USB2+F02403)
Spectra Averaged: 1 (USB2+F02403)
Boxcar Smoothing: 0 (USB2+F02403)
Correct for Electrical Dark: No (USB2+F02403)
Strobe/Lamp Enabled: No (USB2+F02403)
Correct for Detector Non-linearity: No (USB2+F02403)
Correct for Stray Light: No (USB2+F02403)
Number of Pixels in Processed Spectrum: 2048
>>>>>Begin Processed Spectral Data<<<<<
177.51	599.18
177.90	599.18
178.28	599.18
178.67	482.15
179.05	435.34
179.44	3356.33
179.82	1673.48
180.20	5495.58
180.59	2026.90
180.97	1961.37
181.36	2633.10
181.74	2490.33
182.12	1809.23
182.51	2661.19
182.89	2221.17
183.28	2527.78
183.66	2066.69
184.04	2668.21
184.43	2101.80
184.81	1802.21
185.19	1830.30
185.58	3089.51
185.96	3220.58
186.35	1523.69
186.73	3295.47
187.11	5439.40
187.50	5036.83
187.88	4393.19
188.26	4386.16
188.65	4049.13
189.03	3473.36
189.41	3932.10
189.80	6502.01
190.18	4245.73
190.56	4224.67
190.95	4322.97
191.33	4411.91
191.71	4739.58
192.10	4823.84
192.48	4807.46
192.86	3768.26
193.25	6066.67
193.63	3419.52
194.01	4987.68
194.40	4002.32
194.78	5233.44
195.16	3660.60
195.54	5130.45
195.93	3632.51
196.31	4210.62
196.69	3698.05
197.08	4489.15
197.46	4519.57
197.84	4028.06
198.22	6256.25
198.61	3772.94
198.99	5130.45
199.37	3646.55
199.75	4002.32
200.14	4280.84
200.52	4692.77
200.90	4007.00
201.28	4060.83
201.67	5322.38
202.05	4205.94
202.43	4910.44
202.81	4468.08
203.20	3386.76
203.58	4954.91
203.96	4493.83
204.34	5385.57
204.72	4428.29
205.11	4243.39
205.49	4716.18
205.87	4966.62
206.25	5130.45
206.63	4175.52
207.02	3974.23
207.40	4657.67
207.78	4238.71
208.16	4905.76
208.54	4521.92
208.93	3939.12
209.31	6377.96
209.69	4697.46
210.07	3728.47
210.45	4255.09
210.83	4847.25
211.22	4624.90
211.60	4704.48
211.98	3676.98
212.36	3936.78
212.74	4147.43
213.12	4074.87
213.50	3974.23
213.89	4351.06
214.27	5350.46
214.65	4821.50
215.03	5184.29
215.41	4713.84
215.79	3967.21
216.17	3559.95
216.55	5116.41
216.94	5188.97
217.32	4210.62
217.70	4746.61
218.08	4447.02
218.46	4194.24
218.84	4285.52
219.22	5439.40
219.60	4053.81
219.98	6324.13
220.36	4915.12
220.74	4826.18
221.12	5561.11
221.51	4060.83
221.89	4196.58
222.27	5678.14
222.65	4578.09
223.03	4449.36
223.41	3847.84
223.79	5238.12
224.17	4894.06
224.55	4535.96
224.93	4627.24
225.31	5069.60
225.69	4601.49
226.07	4678.73
226.45	3974.23
226.83	5331.74
227.21	3889.97
227.59	4957.25
227.97	5387.91
228.35	5104.71
228.73	6092.41
229.11	4805.12
229.49	6296.04
229.87	4243.39
230.25	5228.76
230.63	4896.40
231.01	4681.07
231.39	6010.50
231.77	4997.04
232.15	4552.34
232.53	5324.72
232.91	6342.85
233.29	5282.59
233.67	5034.49
234.05	4559.36
234.43	6078.37
234.81	6415.41
235.19	4236.37
235.57	4784.06
235.95	6560.52
236.33	5179.61
236.71	4877.68
237.09	4929.17
237.47	4636.60
237.84	5572.82
238.22	6960.75
238.60	5069.60
238.98	5284.93
239.36	4894.06
239.74	5797.51
240.12	5334.08
240.50	5062.58
240.88	7201.83
241.26	5617.29
241.64	5427.70
242.01	5905.17
242.39	5788.14
242.77	4561.70
243.15	4500.85
243.53	4786.40
243.91	4503.19
244.29	5303.65
244.67	4821.50
245.04	5624.31
245.42	5401.96
245.80	5554.09
246.18	5474.51
246.56	4929.17
246.94	5416.00
247.32	6019.86
247.69	5558.77
248.07	6296.04
248.45	6001.13
248.83	4922.15
249.21	5025.13
249.59	5959.00
249.96	7045.01
250.34	5331.74
250.72	7250.98
251.10	6485.62
251.48	5294.29
251.86	6167.31
252.23	5469.83
252.61	5881.77
252.99	6303.06
253.37	4980.66
253.74	5462.81
254.12	5537.71
254.50	6099.44
254.88	5994.11
255.26	6490.31
255.63	5668.78
256.01	8339.33
256.39	5736.65
256.77	5753.04
257.14	6677.55
257.52	6670.53
257.90	5345.78
258.28	5717.93
258.65	5238.12
259.03	5277.91
259.41	5151.52
259.79	5481.53
260.16	5832.62
260.54	6590.95
260.92	6125.18
261.30	7047.35
261.67	5636.01
262.05	7679.30
262.43	5877.09
262.80	6553.50
263.18	6349.87
263.56	6541.80
263.94	5774.10
264.31	6417.75
264.69	6722.02
265.07	6633.08
265.44	5959.00
265.82	7300.13
266.20	6141.57
266.57	6616.69
266.95	6988.84
267.33	7140.97
267.70	9132.77
268.08	8002.29
268.46	7393.75
268.83	6979.48
269.21	7007.56
269.59	6946.71
269.96	7882.92
270.34	7815.05
270.71	8779.35
271.09	6640.10
271.47	6832.02
271.84	6836.70
272.22	7393.75
272.60	7550.57
272.97	6368.60
273.35	6443.49
273.72	8975.95
274.10	6974.80
274.48	7922.71
274.85	7155.02
275.23	7716.75
275.60	7475.67
275.98	7005.22
276.36	7524.82
276.73	7489.71
277.11	8116.98
277.48	8135.70
277.86	7126.93
278.24	7115.23
278.61	7152.68
278.99	7157.36
279.36	8615.51
279.74	8940.85
280.11	7665.25
280.49	8793.39
280.86	8737.22
281.24	7632.49
281.61	8187.19
281.99	10010.47
282.37	9149.15
282.74	8510.19
283.12	8116.98
283.49	7782.28
283.87	10462.19
284.24	8465.72
284.62	8835.52
284.99	8451.67
285.37	8655.30
285.74	8678.71
286.12	7882.92
286.49	7611.42
286.87	7583.34
287.24	8821.48
287.62	7967.18
287.99	9715.56
288.37	9834.93
288.74	9317.67
289.12	9813.87
289.49	8870.63
289.86	9357.46
290.24	8910.42
290.61	9338.74
290.99	9245.12
291.36	8634.24
291.74	10602.63
292.11	9020.42
292.49	9165.54
292.86	10384.96
293.23	9741.31
293.61	9844.29
293.98	10384.96
294.36	9966.00
294.73	9310.65
295.11	9198.31
295.48	9834.93
295.85	11169.04
296.23	10527.73
296.60	9872.38
296.98	9900.47
297.35	10155.58
297.72	9984.73
298.10	10342.83
298.47	10099.41
298.85	10394.32
299.22	13694.47
299.59	9792.80
299.97	10871.79
300.34	10349.85
300.71	12496.12
301.09	10438.79
301.46	10974.77
301.83	10951.37
302.21	10586.24
302.58	11124.57
302.95	12315.90
303.33	11274.36
303.70	10747.74
304.07	11454.58
304.45	11810.34
304.82	11894.60
305.19	10738.38
305.57	9947.28
305.94	12669.32
306.31	11646.51
306.69	10590.92
307.06	11056.69
307.43	10258.57
307.81	11075.42
308.18	11545.86
308.55	13322.33
308.92	11283.72
309.30	12306.54
309.67	11789.28
310.04	11805.66
310.42	11838.43
310.79	12559.31
311.16	11653.53
311.53	11808.00
311.91	11761.19
312.28	11559.91
312.65	11094.14
313.02	12449.31
313.40	12758.26
313.77	11178.40
314.14	12849.54
314.51	11761.19
314.89	13586.81
315.26	12351.01
315.63	11852.47
316.00	12690.38
316.37	12212.92
316.75	12629.53
317.12	12147.38
317.49	12278.45
317.86	14593.24
318.23	13184.24
318.61	13013.38
318.98	11988.22
319.35	12786.35
319.72	14286.63
320.09	13998.74
320.47	13167.85
320.84	12931.46
321.21	13818.52
321.58	13458.08
321.95	14363.87
322.32	13235.73
322.70	13678.09
323.07	14047.90
323.44	14331.10
323.81	14024.49
324.18	14370.89
324.55	15749.46
324.92	14958.36
325.30	13965.98
325.67	15400.72
326.04	15082.41
326.41	14932.62
326.78	14846.02
327.15	15461.58
327.52	17053.14
327.89	14686.86
328.27	15410.09
328.64	16650.57
329.01	15824.36
329.38	17226.34
329.75	17111.66
330.12	15030.92
330.49	15522.43
330.86	15798.62
331.23	17057.82
331.60	16884.62
331.97	17504.87
332.34	16823.77
332.71	17495.50
333.09	17642.96
333.46	17511.89
333.83	18527.68
334.20	17832.54
334.57	18588.53
334.94	18417.68
335.31	18143.83
335.68	19442.83
336.05	19190.05
336.42	18618.96
336.79	20287.76
337.16	18965.36
337.53	18647.05
337.90	18270.22
338.27	18827.27
338.64	18876.42
339.01	20411.81
339.38	21048.44
339.75	19761.14
340.12	19199.41
340.49	20444.58
340.86	21956.57
341.23	21060.14
341.60	20704.38
341.97	21415.90
342.34	20566.29
342.71	21675.70
343.08	22530.00
343.45	21546.97
343.82	22333.39
344.19	22565.10
344.55	22445.74
344.92	23061.30
345.29	22185.94
345.66	22731.28
346.03	22455.10
346.40	23339.82
346.77	22412.97
347.14	23821.97
347.51	24526.47
347.88	24470.30
348.25	24652.86
348.62	24046.66
348.99	24208.16
349.35	24428.17
349.72	24166.03
350.09	25050.75
350.46	25209.91
350.83	24615.41
351.20	26008.03
351.57	25685.04
351.94	24992.24
352.31	24875.21
352.67	26265.49
353.04	25919.09
353.41	25493.12
353.78	27861.74
354.15	28051.32
354.52	27414.69
354.89	27999.83
355.25	27311.71
355.62	28070.04
355.99	28767.52
356.36	27770.46
356.73	28575.60
357.10	28823.70
357.46	28123.88
357.83	28814.34
358.20	29186.48
358.57	30778.04
358.94	30398.88
359.30	30993.37
359.67	31386.58
360.04	30703.15
360.41	31442.76
360.78	31143.17
361.14	32360.25
361.51	32381.31
361.88	33619.46
362.25	33647.54
362.61	33331.57
362.98	34309.91
363.35	33036.66
363.72	36259.58
364.08	33797.34
364.45	36392.99
364.82	34991.01
365.19	34951.22
365.55	37132.60
365.92	37904.98
366.29	38382.45
366.66	38534.58
367.02	39110.35
367.39	38913.75
367.76	39620.59
368.13	40500.63
368.49	40746.39
368.86	41184.07
369.23	45102.12
369.59	43952.92
369.96	47136.05
370.33	47178.18
370.69	48662.08
371.06	49762.13
371.43	50312.16
371.79	50960.48
372.16	51723.50
372.53	53474.22
372.89	54913.65
373.26	55891.99
373.63	58408.07
373.99	59262.36
374.36	59877.93
374.73	62253.57
375.09	63168.72
375.46	65228.39
375.83	65535.00
376.19	65535.00
376.56	65535.00
376.93	65535.00
377.29	65535.00
377.66	65535.00
378.02	65535.00
378.39	65535.00
378.76	65535.00
379.12	65535.00
379.49	65535.00
379.85	65535.00
380.22	65535.00
380.59	65535.00
380.95	65535.00
381.32	65535.00
381.68	65535.00
382.05	65535.00
382.42	65535.00
382.78	65535.00
383.15	65535.00
383.51	65535.00
383.88	65535.00
384.24	65535.00
384.61	65535.00
384.97	65535.00
385.34	65535.00
385.70	65535.00
386.07	65535.00
386.44	65535.00
386.80	65535.00
387.17	65535.00
387.53	65535.00
387.90	65535.00
388.26	65535.00
388.63	65535.00
388.99	65535.00
389.36	65535.00
389.72	65535.00
390.09	65535.00
390.45	65535.00
390.82	65535.00
391.18	65535.00
391.55	65535.00
391.91	65535.00
392.28	65535.00
392.64	65535.00
393.00	65535.00
393.37	65535.00
393.73	65535.00
394.10	65535.00
394.46	65535.00
394.83	65535.00
395.19	65535.00
395.56	65535.00
395.92	65535.00
396.28	65535.00
396.65	65535.00
397.01	65535.00
397.38	65535.00
397.74	65535.00
398.11	65535.00
398.47	65535.00
398.83	65535.00
399.20	65535.00
399.56	65535.00
399.93	65535.00
400.29	65535.00
400.65	65535.00
401.02	65535.00
401.38	65535.00
401.74	65535.00
402.11	65535.00
402.47	65535.00
402.84	65535.00
403.20	65535.00
403.56	65535.00
403.93	65535.00
404.29	65535.00
404.65	65535.00
405.02	65535.00
405.38	65535.00
405.74	65535.00
406.11	65535.00
406.47	65535.00
406.83	65535.00
407.20	65535.00
407.56	65535.00
407.92	65535.00
408.29	65535.00
408.65	65535.00
409.01	65535.00
409.37	65535.00
409.74	65535.00
410.10	65535.00
410.46	65535.00
410.83	65535.00
411.19	65535.00
411.55	65535.00
411.91	65535.00
412.28	65535.00
412.64	65535.00
413.00	65535.00
413.36	65535.00
413.73	65535.00
414.09	65535.00
414.45	65535.00
414.81	65535.00
415.18	65535.00
415.54	65535.00
415.90	65535.00
416.26	65535.00
416.63	65535.00
416.99	65535.00
417.35	65535.00
417.71	65535.00
418.07	65535.00
418.44	65535.00
418.80	65535.00
419.16	65535.00
419.52	65535.00
419.88	65535.00
420.25	65535.00
420.61	65535.00
420.97	65535.00
421.33	65535.00
421.69	65535.00
422.05	65535.00
422.42	65535.00
422.78	65535.00
423.14	65535.00
423.50	65535.00
423.86	65535.00
424.22	65535.00
424.58	65535.00
424.95	65535.00
425.31	65417.97
425.67	64451.33
426.03	63484.69
426.39	63683.64
426.75	62805.94
427.11	62522.73
427.47	61492.89
427.83	60247.73
428.20	60107.30
428.56	59955.16
428.92	59257.68
429.28	59370.03
429.64	59260.02
430.00	57528.03
430.36	57865.06
430.72	55908.38
431.08	56102.64
431.44	54574.27
431.80	54190.42
432.16	55168.77
432.52	54958.12
432.88	54227.87
433.25	54798.96
433.61	53602.95
433.97	51973.94
434.33	52247.78
434.69	53275.27
435.05	50766.22
435.41	51189.86
435.77	49378.28
436.13	49738.72
436.49	49095.08
436.85	48402.28
437.21	48521.65
437.57	47232.01
437.93	47110.30
438.29	46731.14
438.65	46731.14
439.01	47168.82
439.37	46368.35
439.73	45820.67
440.09	44299.32
440.45	43744.61
440.81	43679.08
441.17	43751.63
441.53	43438.00
441.88	41528.13
442.24	41310.46
442.60	40165.93
442.96	40678.51
443.32	40795.54
443.68	40240.83
444.04	40189.34
444.40	39943.58
444.76	40144.87
445.12	40140.19
445.48	39040.14
445.84	38075.84
446.20	37146.64
446.55	36231.49
446.91	37399.42
447.27	37553.90
447.63	36898.55
447.99	36840.03
448.35	35306.98
448.71	35037.82
449.07	35159.53
449.43	34632.91
449.78	34110.97
450.14	34906.75
450.50	35613.59
450.86	33890.96
451.22	33876.91
451.58	33186.46
451.94	32978.15
452.29	33928.41
452.65	32737.07
453.01	34113.31
453.37	31885.12
453.73	31274.24
454.09	31620.64
454.44	31693.19
454.80	31353.82
455.16	32140.24
455.52	32170.66
455.88	31967.04
456.23	30335.68
456.59	30944.22
456.95	31248.49
457.31	30443.35
457.67	30759.32
458.02	31140.83
458.38	29984.60
458.74	31672.13
459.10	29312.87
459.45	29233.29
459.81	28978.17
460.17	39990.39
460.53	29322.23
460.88	29715.44
461.24	30022.05
461.60	29387.77
461.96	28250.27
462.31	29497.77
462.67	27964.72
463.03	29642.88
463.39	28596.67
463.74	28460.91
464.10	27988.13
464.46	28161.33
464.81	27749.39
465.17	29919.07
465.53	27971.74
465.88	27126.81
466.24	27276.60
466.60	27941.32
466.95	27611.30
467.31	28126.22
467.67	26731.26
468.03	29469.69
468.38	27573.85
468.74	27885.14
469.09	26333.37
469.45	28158.99
469.81	27007.44
470.16	26920.84
470.52	27126.81
470.88	26483.16
471.23	25883.98
471.59	25872.28
471.95	28268.99
472.30	26211.66
472.66	27157.24
473.01	27718.96
473.37	27901.53
473.73	25649.93
474.08	26017.40
474.44	26668.06
474.79	26480.82
475.15	26686.79
475.51	25647.59
475.86	25621.84
476.22	26930.20
476.57	26682.11
476.93	26029.10
477.29	26272.51
477.64	26431.67
478.00	26834.24
478.35	24669.25
478.71	26106.34
479.06	25984.63
479.42	27110.43
479.77	28027.92
480.13	25668.66
480.48	26321.66
480.84	26202.30
481.19	27019.14
481.55	26366.13
481.91	26408.26
482.26	26054.84
482.62	26113.36
482.97	26132.08
483.33	25752.91
483.68	26038.46
484.04	27564.49
484.39	26342.73
484.74	25912.07
485.10	25804.41
485.45	26864.67
485.81	28084.09
486.16	26967.65
486.52	25671.00
486.87	25713.13
487.23	25942.50
487.58	26602.53
487.94	25254.38
488.29	26712.53
488.65	25790.36
489.00	27623.00
489.35	25663.97
489.71	26284.22
490.06	26129.74
490.42	25528.22
490.77	26157.83
491.12	26796.79
491.48	26939.57
491.83	26759.34
492.19	25912.07
492.54	25186.50
492.89	25891.01
493.25	25385.45
493.60	25888.67
493.96	26249.11
494.31	27075.32
494.66	26766.37
495.02	26389.54
495.37	25027.35
495.72	25568.01
496.08	25867.60
496.43	24573.28
496.79	25907.39
497.14	24177.73
497.49	24339.23
497.85	24390.72
498.20	24084.11
498.55	24540.52
498.91	24566.26
499.26	25025.01
499.61	25600.78
499.96	24720.74
500.32	24947.77
500.67	25734.19
501.02	24322.85
501.38	23700.26
501.73	27367.88
502.08	24201.14
502.44	23885.17
502.79	23941.34
503.14	23716.65
503.49	23538.77
503.85	24535.84
504.20	23520.04
504.55	23594.94
504.90	26703.17
505.26	24493.71
505.61	23185.35
505.96	23330.46
506.31	23372.59
506.67	23997.51
507.02	22916.19
507.37	22668.09
507.72	23585.58
508.08	26281.88
508.43	22651.70
508.78	22572.13
509.13	24933.73
509.48	22888.10
509.84	22881.08
510.19	23480.25
510.54	23634.73
510.89	23222.80
511.24	22562.76
511.59	24168.37
511.95	23508.34
512.30	22441.06
512.65	24063.05
513.00	22602.55
513.35	23473.23
513.70	22911.50
514.06	23807.93
514.41	22930.23
514.76	22724.26
515.11	22228.07
515.46	21860.60
515.81	23396.00
516.16	23662.82
516.52	23190.03
516.87	21638.25
517.22	21186.53
517.57	23054.28
517.92	22225.73
518.27	21830.18
518.62	23180.67
518.97	21956.57
519.32	22022.10
519.67	22476.16
520.03	21596.12
520.38	22735.96
520.73	21879.33
521.08	22789.80
521.43	23332.80
521.78	22930.23
522.13	21692.08
522.48	21891.03
522.83	22101.68
523.18	21275.47
523.53	21970.61
523.88	20947.79
524.23	22307.65
524.58	20627.14
524.93	21020.35
525.28	22230.41
525.63	21254.40
525.98	22207.00
526.33	22286.58
526.68	20865.88
527.03	21589.10
527.38	20900.98
527.73	19548.15
528.08	20769.91
528.43	20538.20
528.78	20144.99
529.13	20383.73
529.48	20451.60
529.83	19648.80
530.18	18953.66
530.53	20285.42
530.88	19967.11
531.23	19236.86
531.58	19836.04
531.93	19889.87
532.28	19786.89
532.63	20767.57
532.98	18501.93
533.33	20465.64
533.68	18899.83
534.02	18581.51
534.37	18462.15
534.72	18174.26
535.07	19002.81
535.42	18848.33
535.77	18263.20
536.12	18047.87
536.47	17846.58
536.82	18731.31
537.17	19030.90
537.51	17621.89
537.86	17078.89
538.21	17336.35
538.56	19145.58
538.91	17146.76
539.26	17006.33
539.61	18373.21
539.95	18553.43
540.30	16910.37
540.65	17050.80
541.00	16896.33
541.35	18073.62
541.70	17970.63
542.04	17036.76
542.39	17933.18
542.74	16315.87
543.09	16276.09
543.44	17153.79
543.78	16339.28
544.13	16086.50
544.48	17343.37
544.83	16187.14
545.18	15728.40
545.52	16498.44
545.87	16444.60
546.22	15042.62
546.57	15487.32
546.91	15377.32
547.26	15248.59
547.61	16135.65
547.96	16128.63
548.30	14977.09
548.65	15515.41
549.00	15161.99
549.35	15330.51
549.69	15323.49
550.04	14836.66
550.39	14462.17
550.74	14527.71
551.08	15721.38
551.43	15176.03
551.78	14281.95
552.12	15515.41
552.47	14932.62
552.82	15255.61
553.17	14501.96
553.51	14310.04
553.86	15407.75
554.21	14427.06
554.55	14317.06
554.90	14380.25
555.25	13593.83
555.59	15030.92
555.94	13509.57
556.29	13973.00
556.63	13692.13
556.98	14281.95
557.32	14616.65
557.67	13205.30
558.02	13451.06
558.36	14525.36
558.71	12683.36
559.06	13673.41
559.40	13137.43
559.75	12446.97
560.09	13025.08
560.44	12720.81
560.79	12952.52
561.13	12786.35
561.48	12851.88
561.82	13055.51
562.17	11789.28
562.52	12264.41
562.86	12276.11
563.21	12620.17
563.55	12266.75
563.90	12367.39
564.24	12774.64
564.59	12196.53
564.94	12741.88
565.28	12931.46
565.63	12505.48
565.97	11662.89
566.32	12486.76
566.66	12746.56
567.01	11569.27
567.35	12145.04
567.70	12107.59
568.04	11133.93
568.39	10991.16
568.73	12257.39
569.08	11688.64
569.42	11316.49
569.77	11824.39
570.11	12442.29
570.46	11363.30
570.80	11185.42
571.15	12662.30
571.49	10761.78
571.84	10628.37
572.18	12793.37
572.52	11768.21
572.87	10370.91
573.21	11585.65
573.56	10607.31
573.90	10441.13
574.25	10817.96
574.59	9954.30
574.94	12517.18
575.28	11487.35
575.62	10499.64
575.97	9930.89
576.31	10181.33
576.66	10054.94
577.00	9935.57
577.34	10263.25
577.69	9540.02
578.03	10768.80
578.38	9769.40
578.72	10012.81
579.06	10251.55
579.41	9544.70
579.75	9816.21
580.09	9736.63
580.44	10218.78
580.78	10293.68
581.12	9179.58
581.47	9214.69
581.81	8844.88
582.16	8912.76
582.50	9895.78
582.84	9210.01
583.19	9359.80
583.53	10764.12
583.87	9289.59
584.21	9247.46
584.56	8540.61
584.90	8840.20
585.24	9783.44
585.59	8634.24
585.93	9013.40
586.27	10087.71
586.62	8224.64
586.96	9514.28
587.30	10562.84
587.64	7882.92
587.99	8329.97
588.33	8376.78
588.67	9411.29
589.01	8732.54
589.36	8266.77
589.70	9743.65
590.04	7812.71
590.38	7735.47
590.73	8617.85
591.07	7618.44
591.41	7850.16
591.75	8997.02
592.09	8397.84
592.44	8030.38
592.78	7896.97
593.12	9390.23
593.46	8231.66
593.80	7485.03
594.15	7150.34
594.49	8259.75
594.83	9085.96
595.17	7808.03
595.51	7166.72
595.85	8594.45
596.20	7442.90
596.54	7199.49
596.88	6731.38
597.22	6897.56
597.56	9092.98
597.90	7068.42
598.25	8077.19
598.59	6853.09
598.93	7517.80
599.27	7559.93
599.61	8435.29
