SpectraSuite Data File
++++++++++++++++++++++++++++++++++++
Date: Fri Jun 05 13:37:31 CEST 2015
User: jiasu
Dark Spectrum Present: No
Reference Spectrum Present: No
Number of Sampled Component Spectra: 1
Spectrometers: USB2+F02403
Integration Time (usec): 10000000 (USB2+F02403)
Spectra Averaged: 1 (USB2+F02403)
Boxcar Smoothing: 0 (USB2+F02403)
Correct for Electrical Dark: No (USB2+F02403)
Strobe/Lamp Enabled: No (USB2+F02403)
Correct for Detector Non-linearity: No (USB2+F02403)
Correct for Stray Light: No (USB2+F02403)
Number of Pixels in Processed Spectrum: 2048
>>>>>Begin Processed Spectral Data<<<<<
177.51	613.22
177.90	613.22
178.28	613.22
178.67	468.11
179.05	435.34
179.44	3293.13
179.82	1490.92
180.20	5352.81
180.59	1888.81
180.97	1905.20
181.36	2619.06
181.74	2471.61
182.12	1743.70
182.51	2614.38
182.89	2207.13
183.28	2443.52
183.66	2001.16
184.04	2609.70
184.43	2054.99
184.81	1806.89
185.19	1767.10
185.58	3084.83
185.96	3035.67
186.35	1453.47
186.73	2792.26
187.11	3927.42
187.50	3445.27
187.88	2867.16
188.26	2911.63
188.65	2476.29
189.03	1926.26
189.41	2249.25
189.80	4940.87
190.18	2642.46
190.56	2740.77
190.95	2696.30
191.33	2717.36
191.71	3342.28
192.10	3112.91
192.48	3190.15
192.86	2090.10
193.25	4292.54
193.63	1902.86
194.01	3342.28
194.40	2193.08
194.78	3438.25
195.16	2019.88
195.54	3248.66
195.93	1980.09
196.31	2511.39
196.69	2113.50
197.08	2818.00
197.46	2810.98
197.84	2352.24
198.22	4561.70
198.61	2167.34
198.99	3545.91
199.37	2043.29
199.75	2235.21
200.14	2642.46
200.52	2981.84
200.90	2380.32
201.28	2216.49
201.67	3555.27
202.05	2537.14
202.43	3173.77
202.81	2616.72
203.20	1661.78
203.58	3059.08
203.96	2487.99
204.34	3506.12
204.72	2619.06
205.11	2492.67
205.49	2860.13
205.87	3089.51
206.25	2946.73
206.63	2256.28
207.02	2190.74
207.40	2736.09
207.78	2579.27
208.16	3023.97
208.54	2445.86
208.93	2066.69
209.31	4259.78
209.69	2768.85
210.07	1907.54
210.45	2476.29
210.83	3056.74
211.22	2569.91
211.60	2752.47
211.98	1783.49
212.36	1832.64
212.74	2214.15
213.12	2232.87
213.50	1966.05
213.89	2427.14
214.27	3372.71
214.65	2953.76
215.03	3178.45
215.41	2895.24
215.79	2003.50
216.17	1666.46
216.55	3115.25
216.94	3218.24
217.32	2392.03
217.70	2815.66
218.08	2319.47
218.46	2113.50
218.84	2193.08
219.22	3255.69
219.60	2071.37
219.98	4231.69
220.36	3035.67
220.74	2904.60
221.12	3447.61
221.51	2167.34
221.89	2230.53
222.27	3403.14
222.65	2466.92
223.03	2452.88
223.41	1638.38
223.79	3091.85
224.17	2672.89
224.55	2422.45
224.93	2342.88
225.31	3122.27
225.69	2506.71
226.07	2546.50
226.45	1898.17
226.83	3009.93
227.21	1720.29
227.59	2640.12
227.97	2860.13
228.35	2902.26
228.73	3749.54
229.11	2445.86
229.49	3913.38
229.87	2008.18
230.25	2647.15
230.63	2396.71
231.01	2092.44
231.39	3590.38
231.77	2602.68
232.15	2197.76
232.53	3000.57
232.91	3999.98
233.29	3019.29
233.67	2602.68
234.05	2324.15
234.43	3744.86
234.81	3854.86
235.19	1891.15
235.57	2349.90
235.95	3946.14
236.33	2616.72
236.71	2586.29
237.09	2523.10
237.47	2059.67
237.84	3056.74
238.22	4219.99
238.60	2565.23
238.98	2642.46
239.36	2464.58
239.74	3045.04
240.12	2670.55
240.50	2473.95
240.88	4374.46
241.26	3171.43
241.64	2785.24
242.01	3229.94
242.39	3304.84
242.77	2162.66
243.15	2064.35
243.53	2246.91
243.91	1994.14
244.29	2497.35
244.67	2256.28
245.04	2740.77
245.42	2602.68
245.80	2565.23
246.18	2562.89
246.56	2223.51
246.94	2537.14
247.32	3183.13
247.69	2773.53
248.07	3506.12
248.45	3059.08
248.83	2146.27
249.21	2172.02
249.59	3061.42
249.96	4166.15
250.34	2516.08
250.72	4444.68
251.10	3571.66
251.48	2417.77
251.86	3119.93
252.23	2495.01
252.61	2759.49
252.99	3283.77
253.37	2223.51
253.74	2239.89
254.12	2532.46
254.50	3063.76
254.88	2841.41
255.26	3297.81
255.63	2504.37
256.01	4676.39
256.39	2537.14
256.77	2581.61
257.14	3091.85
257.52	3309.52
257.90	2043.29
258.28	2516.08
258.65	2197.76
259.03	2169.68
259.41	2012.86
259.79	2359.26
260.16	2537.14
260.54	3084.83
260.92	2717.36
261.30	3777.62
261.67	2394.37
262.05	4454.04
262.43	2607.36
262.80	2888.22
263.18	2946.73
263.56	3122.27
263.94	2422.45
264.31	3084.83
264.69	3171.43
265.07	2988.86
265.44	2289.04
265.82	3361.01
266.20	2387.35
266.57	2803.96
266.95	3148.02
267.33	3370.37
267.70	5139.82
268.08	3941.46
268.46	3421.86
268.83	3068.44
269.21	3077.80
269.59	2822.69
269.96	3641.87
270.34	3660.60
270.71	4774.69
271.09	2827.37
271.47	2944.39
271.84	2836.73
272.22	3192.49
272.60	3449.95
272.97	2333.51
273.35	2340.54
273.72	4664.69
274.10	2778.22
274.48	3585.70
274.85	2867.16
275.23	3339.94
275.60	3009.93
275.98	2628.42
276.36	3075.46
276.73	3009.93
277.11	3716.77
277.48	3513.14
277.86	2581.61
278.24	2609.70
278.61	2476.29
278.99	2635.44
279.36	3868.91
279.74	4163.81
280.11	2689.28
280.49	3847.84
280.86	3721.45
281.24	2665.87
281.61	3187.81
281.99	4950.23
282.37	4189.56
282.74	3510.80
283.12	2984.18
283.49	2860.13
283.87	5032.15
284.24	3370.37
284.62	3447.61
284.99	3222.92
285.37	3391.44
285.74	3492.08
286.12	2998.23
286.49	2445.86
286.87	2471.61
287.24	3351.65
287.62	2778.22
287.99	4201.26
288.37	4156.79
288.74	3538.89
289.12	4037.42
289.49	3229.94
289.86	3609.11
290.24	3162.06
290.61	3379.73
290.99	3304.84
291.36	2682.25
291.74	4582.77
292.11	2848.43
292.49	2726.72
292.86	3983.59
293.23	3215.90
293.61	3337.60
293.98	3983.59
294.36	3592.72
294.73	3042.70
295.11	2768.85
295.48	3185.47
295.85	4250.41
296.23	3695.71
296.60	2970.14
296.98	2958.44
297.35	3459.31
297.72	2913.97
298.10	3091.85
298.47	3077.80
298.85	3431.23
299.22	6209.44
299.59	2878.86
299.97	3672.30
300.34	3304.84
300.71	5343.44
301.09	3543.57
301.46	3927.42
301.83	3669.96
302.21	3316.54
302.58	4140.41
302.95	4978.32
303.33	4088.92
303.70	3492.08
304.07	4044.45
304.45	4542.98
304.82	4519.57
305.19	3742.52
305.57	2956.10
305.94	5135.14
306.31	4344.03
306.69	3534.21
307.06	3702.73
307.43	3026.31
307.81	3911.04
308.18	4175.52
308.55	5551.75
308.92	3578.68
309.30	4271.48
309.67	4231.69
310.04	3946.14
310.42	3754.22
310.79	4297.22
311.16	3538.89
311.53	3749.54
311.91	3906.35
312.28	3817.41
312.65	3166.74
313.02	4292.54
313.40	4409.57
313.77	3201.85
314.14	4983.00
314.51	3932.10
314.89	5247.48
315.26	3969.55
315.63	3555.27
316.00	4145.09
316.37	3653.58
316.75	3733.15
317.12	3585.70
317.49	3702.73
317.86	5664.10
318.23	4547.66
318.61	4222.33
318.98	3410.16
319.35	4245.73
319.72	5203.01
320.09	4940.87
320.47	4262.12
320.84	4077.21
321.21	4664.69
321.58	4140.41
321.95	4692.77
322.32	3805.71
322.70	4109.98
323.07	4381.48
323.44	4716.18
323.81	4292.54
324.18	4613.20
324.55	5879.43
324.92	4812.14
325.30	3566.98
325.67	5123.43
326.04	4716.18
326.41	4297.22
326.78	4030.40
327.15	4880.02
327.52	6534.78
327.89	4149.77
328.27	4655.33
328.64	5617.29
329.01	4503.19
329.38	5427.70
329.75	5640.69
330.12	3908.69
330.49	4484.47
330.86	4435.32
331.23	5811.55
331.60	4936.19
331.97	5371.53
332.34	4404.89
332.71	5050.88
333.09	4835.55
333.46	4692.77
333.83	5366.85
334.20	4926.83
334.57	5221.74
334.94	5018.11
335.31	4571.07
335.68	5544.73
336.05	5177.26
336.42	4781.71
336.79	5930.92
337.16	5203.01
337.53	4877.68
337.90	4456.38
338.27	4821.50
338.64	4667.03
339.01	5322.38
339.38	5556.43
339.75	4631.92
340.12	4557.02
340.49	5053.22
340.86	6509.03
341.23	5411.32
341.60	5085.98
341.97	5455.79
342.34	4873.00
342.71	5813.89
343.08	6150.93
343.45	5411.32
343.82	5921.56
344.19	6010.50
344.55	5692.18
344.92	6466.90
345.29	5799.85
345.66	5961.34
346.03	5607.92
346.40	6061.99
346.77	4975.98
347.14	5703.89
347.51	6300.72
347.88	6317.11
348.25	6272.64
348.62	6003.47
348.99	5912.19
349.35	5886.45
349.72	5891.13
350.09	6410.73
350.46	6427.11
350.83	5603.24
351.20	6738.40
351.57	5942.62
351.94	6029.22
352.31	6001.13
352.67	6686.91
353.04	6216.46
353.41	5795.17
353.78	6829.68
354.15	7222.89
354.52	6036.24
354.89	6321.79
355.25	5984.75
355.62	6633.08
355.99	6935.01
356.36	5944.96
356.73	6354.55
357.10	6527.75
357.46	5785.80
357.83	5900.49
358.20	6399.02
358.57	8072.51
358.94	7061.40
359.30	7045.01
359.67	6693.93
360.04	6342.85
360.41	7389.07
360.78	6827.34
361.14	7733.13
361.51	7414.82
361.88	8187.19
362.25	7651.21
362.61	7433.54
362.98	7597.38
363.35	7148.00
363.72	8830.84
364.08	7248.64
364.45	8004.63
364.82	7421.84
365.19	7199.49
365.55	8374.44
365.92	8315.92
366.29	8315.92
366.66	8180.17
367.02	8409.54
367.39	7875.90
367.76	8351.03
368.13	8655.30
368.49	8402.52
368.86	8315.92
369.23	10857.75
369.59	8819.14
369.96	9511.94
370.33	9336.40
370.69	10272.61
371.06	9628.96
371.43	9778.76
371.79	9970.68
372.16	10085.37
372.53	11047.33
372.89	12156.74
373.26	11447.56
373.63	11651.19
373.99	11843.11
374.36	11903.96
374.73	13217.01
375.09	13114.02
375.46	14174.28
375.83	13385.52
376.19	14354.51
376.56	14892.83
376.93	19499.00
377.29	14993.47
377.66	17511.89
378.02	17224.00
378.39	18855.36
378.76	18059.57
379.12	18595.56
379.49	19499.00
379.85	19711.99
380.22	21025.03
380.59	23363.23
380.95	22373.18
381.32	23459.19
381.68	24208.16
382.05	26597.85
382.42	26478.48
382.78	28268.99
383.15	28680.92
383.51	29790.34
383.88	32257.26
384.24	33242.63
384.61	37195.79
384.97	36128.51
385.34	38178.82
385.70	43531.62
386.07	44769.77
386.44	45619.38
386.80	48521.65
387.17	52329.70
387.53	54632.78
387.90	56762.67
388.26	59583.02
388.63	61219.05
388.99	62969.77
389.36	64647.94
389.72	65535.00
390.09	65535.00
390.45	65535.00
390.82	65535.00
391.18	65535.00
391.55	65535.00
391.91	65535.00
392.28	65535.00
392.64	65535.00
393.00	65535.00
393.37	65535.00
393.73	65535.00
394.10	65535.00
394.46	65535.00
394.83	65535.00
395.19	65535.00
395.56	65535.00
395.92	65535.00
396.28	65535.00
396.65	65535.00
397.01	65535.00
397.38	65535.00
397.74	65535.00
398.11	65535.00
398.47	65535.00
398.83	65535.00
399.20	65535.00
399.56	65535.00
399.93	65535.00
400.29	65535.00
400.65	65535.00
401.02	65535.00
401.38	65535.00
401.74	65535.00
402.11	65535.00
402.47	65535.00
402.84	65535.00
403.20	65535.00
403.56	65535.00
403.93	65535.00
404.29	65535.00
404.65	65535.00
405.02	65535.00
405.38	65535.00
405.74	65535.00
406.11	65535.00
406.47	65535.00
406.83	65535.00
407.20	65535.00
407.56	65535.00
407.92	65535.00
408.29	65535.00
408.65	65535.00
409.01	65535.00
409.37	65535.00
409.74	65535.00
410.10	65535.00
410.46	65535.00
410.83	65535.00
411.19	65535.00
411.55	65535.00
411.91	65535.00
412.28	65535.00
412.64	65535.00
413.00	65535.00
413.36	65535.00
413.73	65535.00
414.09	65535.00
414.45	64231.32
414.81	62646.78
415.18	61242.46
415.54	59772.60
415.90	57623.99
416.26	56289.88
416.63	56121.37
416.99	51756.27
417.35	50475.99
417.71	49254.23
418.07	47707.14
418.44	46138.98
418.80	41727.07
419.16	39833.58
419.52	38382.45
419.88	39203.97
420.25	35969.35
420.61	34778.02
420.97	33001.55
421.33	32327.48
421.69	29848.85
422.05	28926.68
422.42	29734.17
422.78	27569.17
423.14	27026.17
423.50	25626.53
423.86	24063.05
424.22	24269.01
424.58	22965.34
424.95	23206.41
425.31	22920.87
425.67	21553.99
426.03	20212.87
426.39	20938.43
426.75	19325.80
427.11	19978.81
427.47	18827.27
427.83	18003.40
428.20	18497.25
428.56	18181.28
428.92	17118.68
429.28	18192.98
429.64	18405.97
430.00	16652.91
430.36	17289.54
430.72	15707.34
431.08	15391.36
431.44	14525.36
431.80	14178.97
432.16	14183.65
432.52	14436.42
432.88	15733.08
433.25	17160.81
433.61	15185.40
433.97	13628.94
434.33	14092.37
434.69	15515.41
435.05	13013.38
435.41	13935.55
435.77	12793.37
436.13	12147.38
436.49	12709.11
436.85	12982.95
437.21	13504.89
437.57	12795.71
437.93	12257.39
438.29	12320.58
438.65	12638.89
439.01	13378.50
439.37	12362.71
439.73	12149.72
440.09	11953.12
440.45	12184.83
440.81	12030.35
441.17	12402.50
441.53	12564.00
441.88	11456.92
442.24	11234.57
442.60	11119.89
442.96	11632.46
443.32	11384.37
443.68	11454.58
444.04	11377.34
444.40	11866.52
444.76	12297.17
445.12	12793.37
445.48	11901.62
445.84	11936.73
446.20	11194.78
446.55	10293.68
446.91	11501.39
447.27	11550.54
447.63	11485.01
447.99	11323.51
448.35	10736.04
448.71	10668.16
449.07	11014.56
449.43	10335.81
449.78	10342.83
450.14	11342.24
450.50	12367.39
450.86	11066.05
451.22	11307.13
451.58	11213.51
451.94	10420.06
452.29	12084.19
452.65	11075.42
453.01	12065.46
453.37	10654.12
453.73	10188.35
454.09	10689.23
454.44	10501.98
454.80	10476.24
455.16	11185.42
455.52	11410.11
455.88	11829.07
456.23	10656.46
456.59	11370.32
456.95	11573.95
457.31	11276.70
457.67	11405.43
458.02	11889.92
458.38	10609.65
458.74	12791.03
459.10	10944.34
459.45	11428.84
459.81	11316.49
460.17	21895.71
460.53	11145.63
460.88	11838.43
461.24	12102.91
461.60	12084.19
461.96	11808.00
462.31	12758.26
462.67	11845.45
463.03	12884.65
463.39	12138.02
463.74	12241.00
464.10	11726.08
464.46	11864.18
464.81	11859.49
465.17	13514.25
465.53	12585.06
465.88	11955.46
466.24	12311.22
466.60	13043.81
466.95	12922.10
467.31	12786.35
467.67	12531.23
468.03	14897.51
468.38	13891.08
468.74	13942.57
469.09	13081.25
469.45	14242.16
469.81	13525.96
470.16	13944.91
470.52	14499.62
470.88	14326.42
471.23	14097.05
471.59	13640.64
471.95	15910.96
472.30	14441.11
472.66	15386.68
473.01	16140.33
473.37	16098.20
473.73	14906.87
474.08	14820.27
474.44	15323.49
474.79	15606.69
475.15	15419.45
475.51	14906.87
475.86	15077.73
476.22	16664.61
476.57	16779.30
476.93	15494.35
477.29	16362.69
477.64	16657.59
478.00	17802.11
478.35	16098.20
478.71	16592.06
479.06	16929.09
479.42	18253.84
479.77	19267.29
480.13	17090.59
480.48	17951.91
480.84	17977.65
481.19	18698.54
481.55	18904.51
481.91	19232.18
482.26	18993.45
482.62	18775.78
482.97	19133.88
483.33	18939.62
483.68	19693.27
484.04	20952.48
484.39	20224.57
484.74	19700.29
485.10	19960.09
485.45	21448.67
485.81	22354.46
486.16	21839.54
486.52	20896.30
486.87	21099.93
487.23	21048.44
487.58	21769.32
487.94	20971.20
488.29	22895.12
488.65	22078.27
489.00	23555.15
489.35	22108.70
489.71	23318.76
490.06	23344.50
490.42	23180.67
490.77	23470.89
491.12	23796.23
491.48	24528.81
491.83	24219.86
492.19	23447.49
492.54	23714.31
492.89	23676.86
493.25	23826.65
493.60	24320.51
493.96	24212.84
494.31	25659.29
494.66	25462.69
495.02	24524.13
495.37	24336.89
495.72	24912.66
496.08	25378.43
496.43	24514.77
496.79	25668.66
497.14	24212.84
497.49	24463.28
497.85	24744.14
498.20	24765.21
498.55	25326.94
498.91	25333.96
499.26	25813.77
499.61	26497.20
499.96	25338.64
500.32	26377.84
500.67	27220.43
501.02	25352.68
501.38	24919.68
501.73	28945.41
502.08	25989.31
502.44	26017.40
502.79	26242.09
503.14	25841.85
503.49	25308.21
503.85	26899.78
504.20	26078.25
504.55	26471.46
504.90	29228.61
505.26	26948.93
505.61	26717.22
505.96	26501.89
506.31	26677.43
506.67	27346.82
507.02	26665.72
507.37	25912.07
507.72	27204.05
508.08	29827.79
508.43	26567.42
508.78	26817.86
509.13	28889.23
509.48	27220.43
509.84	27386.61
510.19	27861.74
510.54	27840.67
510.89	28041.96
511.24	27391.29
511.59	29362.02
511.95	28570.92
512.30	27772.80
512.65	29797.36
513.00	28053.66
513.35	28659.86
513.70	29163.08
514.06	30171.85
514.41	29357.34
514.76	28889.23
515.11	28268.99
515.46	28222.18
515.81	29565.65
516.16	30483.14
516.52	30492.50
516.87	28690.29
517.22	28409.42
517.57	30349.73
517.92	29677.99
518.27	29432.24
518.62	30675.06
518.97	29652.25
519.32	29720.12
519.67	30305.26
520.03	29572.67
520.38	30518.25
520.73	29862.90
521.08	30810.81
521.43	30689.10
521.78	30986.35
522.13	29776.30
522.48	30139.08
522.83	30134.40
523.18	29465.00
523.53	30328.66
523.88	29841.83
524.23	30630.59
524.58	29273.08
524.93	30125.04
525.28	30665.70
525.63	30412.92
525.98	31180.62
526.33	30742.94
526.68	29961.20
527.03	30127.38
527.38	29837.15
527.73	28584.96
528.08	29565.65
528.43	28959.45
528.78	28959.45
529.13	29441.60
529.48	29516.50
529.83	28776.89
530.18	28135.58
530.53	29174.78
530.88	28652.84
531.23	28002.17
531.58	28355.59
531.93	28947.75
532.28	28627.09
532.63	29373.72
532.98	27300.01
533.33	28624.75
533.68	27089.36
534.02	27007.44
534.37	26934.88
534.72	26609.55
535.07	27756.41
535.42	27316.39
535.77	26614.23
536.12	26192.94
536.47	25933.14
536.82	27035.53
537.17	27344.48
537.51	25640.57
537.86	25865.26
538.21	25832.49
538.56	27377.25
538.91	25315.23
539.26	24945.43
539.61	26415.29
539.95	26899.78
540.30	24231.57
540.65	25158.42
541.00	25130.33
541.35	26331.03
541.70	26038.46
542.04	25205.23
542.39	25893.35
542.74	24669.25
543.09	24346.25
543.44	25165.44
543.78	24168.37
544.13	24327.53
544.48	25490.77
544.83	24294.76
545.18	23527.06
545.52	24582.65
545.87	24549.88
546.22	22750.01
546.57	23452.17
546.91	23021.51
547.26	23101.09
547.61	23903.89
547.96	23482.59
548.30	22490.21
548.65	23276.63
549.00	22471.48
549.35	22860.01
549.69	22740.64
550.04	22286.58
550.39	21895.71
550.74	21872.31
551.08	23527.06
551.43	22679.79
551.78	21418.24
552.12	22600.21
552.47	22274.88
552.82	22122.74
553.17	21851.24
553.51	21539.95
553.86	22375.52
554.21	21486.12
554.55	21331.64
554.90	21523.57
555.25	21703.79
555.59	21926.14
555.94	20575.65
556.29	20833.11
556.63	20383.73
556.98	20968.86
557.32	21352.71
557.67	19946.05
558.02	20009.24
558.36	21123.33
558.71	19487.30
559.06	20173.08
559.40	20292.44
559.75	18930.25
560.09	19468.58
560.44	19321.12
560.79	20020.94
561.13	19339.85
561.48	19470.92
561.82	19477.94
562.17	18728.97
562.52	18698.54
562.86	19103.45
563.21	19124.52
563.55	18530.02
563.90	18759.39
564.24	19236.86
564.59	18553.43
564.94	19332.82
565.28	18932.59
565.63	18897.49
565.97	17844.24
566.32	18728.97
566.66	18853.02
567.01	17436.99
567.35	17853.61
567.70	18148.51
568.04	16886.97
568.39	16964.20
568.73	18150.85
569.08	17528.27
569.42	17270.81
569.77	17415.93
570.11	17935.53
570.46	16788.66
570.80	16683.34
571.15	18394.27
571.49	16444.60
571.84	15953.09
572.18	18544.06
572.52	17170.17
572.87	15623.08
573.21	16954.84
573.56	16030.33
573.90	15665.21
574.25	16180.12
574.59	15257.95
574.94	17397.20
575.28	16893.99
575.62	15403.07
575.97	14799.21
576.31	15157.31
576.66	15185.40
577.00	15023.90
577.34	15187.74
577.69	14293.65
578.03	15389.02
578.38	14413.02
578.72	14717.29
579.06	14846.02
579.41	14628.35
579.75	14527.71
580.09	14469.19
580.44	14736.01
580.78	14497.28
581.12	13699.16
581.47	13692.13
581.81	13186.58
582.16	13011.04
582.50	13919.17
582.84	13217.01
583.19	13813.84
583.53	14530.05
583.87	13102.32
584.21	13195.94
584.56	12641.23
584.90	12697.41
585.24	13715.54
585.59	12631.87
585.93	12952.52
586.27	13958.96
586.62	11976.52
586.96	13224.03
587.30	14141.52
587.64	11522.46
587.99	12348.67
588.33	11667.57
588.67	12840.18
589.01	12046.74
589.36	11681.61
589.70	13013.38
590.04	11309.47
590.38	11201.80
590.73	12060.78
591.07	10719.65
591.41	10736.04
591.75	12152.06
592.09	11281.38
592.44	11028.60
592.78	11037.97
593.12	12297.17
593.46	11286.06
593.80	10356.87
594.15	10129.84
594.49	11063.71
594.83	12072.48
595.17	10260.91
595.51	9792.80
595.85	11279.04
596.20	10139.20
596.54	9558.75
596.88	9254.48
597.22	9441.72
597.56	11658.21
597.90	9408.95
598.25	10614.33
598.59	8987.66
598.93	10188.35
599.27	9851.31
599.61	10998.18
599.95	9867.70
600.29	10483.26
600.63	10160.27
600.97	9104.68
601.32	9607.90
601.66	8814.46
602.00	8505.51
602.34	8690.41
602.68	9867.70
603.02	9202.99
